Time (s);FP1;FP2;F3;F4;F7;F8;Sampling Rate
0.0000000000e+000;-4.5567293938e-008;2.9829072545e-009;-5.3576460601e-008;-2.4454775982e-008;-4.9769557364e-008;-7.0007985187e-008;250
3.9062500000e-003;-4.5485172961e-008;3.0475486579e-009;-5.3740297545e-008;-2.4410942601e-008;-4.9788109635e-008;-7.0122872842e-008;
7.8125000000e-003;-4.5341497668e-008;3.0443298993e-009;-5.3634394703e-008;-2.4510386609e-008;-4.9916341283e-008;-7.0256810147e-008;
1.1718750000e-002;-4.5372072321e-008;2.9810074409e-009;-5.3707598369e-008;-2.4644586816e-008;-4.9994145712e-008;-7.0376366068e-008;
1.5625000000e-002;-4.5405577964e-008;3.0087459191e-009;-5.3737192474e-008;-2.4605627758e-008;-4.9989250073e-008;-7.0474627023e-008;
1.9531250000e-002;-4.5404796367e-008;3.0663687145e-009;-5.3825726098e-008;-2.4564052126e-008;-4.9992223694e-008;-7.0561796406e-008;
2.3437500000e-002;-4.5341316479e-008;3.0616971181e-009;-5.3886008544e-008;-2.4534928755e-008;-4.9981359496e-008;-7.0572902189e-008;
2.7343750000e-002;-4.5297419149e-008;3.1421634183e-009;-5.3790923715e-008;-2.4653571629e-008;-5.0012719299e-008;-7.0702611765e-008;
3.1250000000e-002;-4.5347352540e-008;3.1182694205e-009;-5.3838466130e-008;-2.4655113506e-008;-5.0048907241e-008;-7.0828029664e-008;
3.5156250000e-002;-4.5375202262e-008;3.0710849419e-009;-5.3901654695e-008;-2.4606052307e-008;-5.0049152378e-008;-7.0853801049e-008;
3.9062500000e-002;-4.5377081648e-008;3.0239228899e-009;-5.3865825578e-008;-2.4593200365e-008;-5.0032749499e-008;-7.0883686476e-008;
4.3945312500e-002;-4.5366753909e-008;3.0391891226e-009;-5.3937419864e-008;-2.4730216097e-008;-5.0030916299e-008;-7.0826082776e-008;
4.7851562500e-002;-4.5295788453e-008;3.1845424076e-009;-5.3827335478e-008;-2.4626704231e-008;-4.9971749405e-008;-7.0952012265e-008;
5.1757812500e-002;-4.5307054108e-008;3.1564910685e-009;-5.3732073013e-008;-2.4605135707e-008;-4.9984915762e-008;-7.1010283875e-008;
5.5664062500e-002;-4.5340716071e-008;3.0962976627e-009;-5.3780823350e-008;-2.4634125850e-008;-4.9998192253e-008;-7.0928209084e-008;
5.9570312500e-002;-4.5277971594e-008;3.0744378154e-009;-5.3726349591e-008;-2.4689335021e-008;-4.9955119152e-008;-7.0933396046e-008;
6.3476562500e-002;-4.5274710203e-008;3.1061770933e-009;-5.3520448517e-008;-2.4607258453e-008;-4.9984290484e-008;-7.0887509196e-008;
6.7382812500e-002;-4.5320508235e-008;3.0528235495e-009;-5.3489937812e-008;-2.4442190494e-008;-4.9994302032e-008;-7.0776550842e-008;
7.1289062500e-002;-4.5315857733e-008;3.0298459297e-009;-5.3531220345e-008;-2.4330365278e-008;-4.9931717427e-008;-7.0691925202e-008;
7.5195312500e-002;-4.5252605219e-008;3.2307434505e-009;-5.3545814893e-008;-2.4646261920e-008;-4.9925304779e-008;-7.0734017754e-008;
7.9101562500e-002;-4.5288789607e-008;3.1335356532e-009;-5.3451714166e-008;-2.4589242642e-008;-4.9935362512e-008;-7.0749173631e-008;
8.3984375000e-002;-4.5278127914e-008;3.0909779181e-009;-5.3382155585e-008;-2.4483407302e-008;-4.9898950749e-008;-7.0571672950e-008;
8.7890625000e-002;-4.5324867415e-008;2.9942173185e-009;-5.3362352759e-008;-2.4513314045e-008;-4.9880195974e-008;-7.0397511820e-008;
9.1796875000e-002;-4.5307633201e-008;3.1184259619e-009;-5.3375494247e-008;-2.4417090572e-008;-4.9824251391e-008;-7.0329519986e-008;
9.5703125000e-002;-4.5251152159e-008;3.1621907315e-009;-5.3166417047e-008;-2.4491097150e-008;-4.9840075178e-008;-7.0439106992e-008;
9.9609375000e-002;-4.5273704785e-008;3.2070506251e-009;-5.3117936716e-008;-2.4424041456e-008;-4.9818059011e-008;-7.0275490316e-008;
1.0351562500e-001;-4.5220350131e-008;3.1997415828e-009;-5.3021668833e-008;-2.4286981315e-008;-4.9709967698e-008;-7.0275156361e-008;
1.0742187500e-001;-4.5274909155e-008;3.1849447524e-009;-5.2961162567e-008;-2.4225357720e-008;-4.9724963702e-008;-7.0132081476e-008;
1.1132812500e-001;-4.5356159717e-008;3.0684697006e-009;-5.3017867430e-008;-2.4067396964e-008;-4.9751204045e-008;-6.9969232186e-008;
1.1523437500e-001;-4.5327571030e-008;3.0909332871e-009;-5.3018023749e-008;-2.4321268555e-008;-4.9752209463e-008;-6.9821375348e-008;
1.1914062500e-001;-4.5343686139e-008;3.2150524465e-009;-5.2865541278e-008;-2.4397978748e-008;-4.9740318531e-008;-6.9770280220e-008;
1.2304687500e-001;-4.5297465334e-008;3.1682478863e-009;-5.2766342407e-008;-2.4224394934e-008;-4.9680686232e-008;-6.9714062079e-008;
1.2792968750e-001;-4.5318987674e-008;3.1211975227e-009;-5.2733888367e-008;-2.4215029981e-008;-4.9731244900e-008;-6.9672310588e-008;
1.3183593750e-001;-4.5353523603e-008;2.9854330119e-009;-5.2818155183e-008;-2.4244803498e-008;-4.9666088131e-008;-6.9395909463e-008;
1.3574218750e-001;-4.5266752124e-008;3.2199027888e-009;-5.2578233323e-008;-2.4112548402e-008;-4.9587747242e-008;-6.9262043212e-008;
1.3964843750e-001;-4.5307814389e-008;3.1928795163e-009;-5.2514284477e-008;-2.4093905537e-008;-4.9630372700e-008;-6.9336586250e-008;
1.4355468750e-001;-4.5365769807e-008;3.1432363379e-009;-5.2607692425e-008;-2.4134697796e-008;-4.9612424391e-008;-6.9224313393e-008;
1.4746093750e-001;-4.5324778597e-008;3.1228515329e-009;-5.2630490188e-008;-2.4125981213e-008;-4.9574470751e-008;-6.9047800366e-008;
1.5136718750e-001;-4.5406160609e-008;3.0243698657e-009;-5.2635297010e-008;-2.4035680113e-008;-4.9541299063e-008;-6.8933495356e-008;
1.5527343750e-001;-4.5420108563e-008;3.0341598123e-009;-5.2744773882e-008;-2.3790772019e-008;-4.9538236624e-008;-6.8626938798e-008;
1.5917968750e-001;-4.5291876916e-008;3.1610507545e-009;-5.2486878843e-008;-2.4030672563e-008;-4.9483521281e-008;-6.8598509984e-008;
1.6308593750e-001;-4.5402941851e-008;2.7586521956e-009;-5.2436856635e-008;-2.4080696548e-008;-4.9555783477e-008;-6.8794754782e-008;
1.6796875000e-001;-4.5557793982e-008;2.6601034708e-009;-5.2617568969e-008;-2.4084853223e-008;-4.9508486200e-008;-6.8299463862e-008;
1.7187500000e-001;-4.5503881552e-008;2.8144646613e-009;-5.2708138298e-008;-2.3952285488e-008;-4.9392081536e-008;-6.8321838853e-008;
1.7578125000e-001;-4.5491631795e-008;2.6802646769e-009;-5.2590724664e-008;-2.3898596879e-008;-4.9417650416e-008;-6.8463144487e-008;
1.7968750000e-001;-4.5616086908e-008;2.7020130577e-009;-5.2718643673e-008;-2.3972848595e-008;-4.9385128875e-008;-6.8242648865e-008;
1.8359375000e-001;-4.5509917612e-008;2.7854742957e-009;-5.2441038179e-008;-2.4041982627e-008;-4.9248736644e-008;-6.8042865564e-008;
1.8750000000e-001;-4.5459334075e-008;2.8794187035e-009;-5.2283791518e-008;-2.3872109622e-008;-4.9266841273e-008;-6.8119021535e-008;
1.9140625000e-001;-4.5515193392e-008;2.9179083594e-009;-5.2156117647e-008;-2.3799019644e-008;-4.9257945278e-008;-6.8056856151e-008;
1.9531250000e-001;-4.5342389399e-008;3.1133298162e-009;-5.2033094278e-008;-2.3791040249e-008;-4.9188834339e-008;-6.7769235557e-008;
1.9921875000e-001;-4.5407009708e-008;2.9542077673e-009;-5.1921158928e-008;-2.3830446949e-008;-4.9194980534e-008;-6.7768631595e-008;
2.0312500000e-001;-4.5500463841e-008;2.9515700994e-009;-5.1959847980e-008;-2.3832413376e-008;-4.9114603939e-008;-6.7512033297e-008;
2.0703125000e-001;-4.5452072328e-008;2.9962512471e-009;-5.1815231217e-008;-2.3815426076e-008;-4.9115545409e-008;-6.7468469922e-008;
2.1191406250e-001;-4.5615013988e-008;2.6926252339e-009;-5.1875471030e-008;-2.3867169574e-008;-4.9104858846e-008;-6.7365583334e-008;
2.1582031250e-001;-4.5653951730e-008;2.5806876636e-009;-5.2026994268e-008;-2.4018223854e-008;-4.9027054416e-008;-6.7245558455e-008;
2.1972656250e-001;-4.5553726125e-008;2.7186426443e-009;-5.2068859446e-008;-2.3872489763e-008;-4.8909797101e-008;-6.7297456496e-008;
2.2363281250e-001;-4.5499991330e-008;2.8099271798e-009;-5.1935419521e-008;-2.3722890319e-008;-4.9091426035e-008;-6.7390040215e-008;
2.2753906250e-001;-4.5554777728e-008;2.9725808481e-009;-5.2018187091e-008;-2.3772622981e-008;-4.9183292106e-008;-6.7694628569e-008;
2.3144531250e-001;-4.5487162481e-008;2.8862361390e-009;-5.2198988243e-008;-2.3927363202e-008;-4.9143348946e-008;-6.7727619069e-008;
2.3535156250e-001;-4.5572768670e-008;2.8091671211e-009;-5.2263473549e-008;-2.4006823196e-008;-4.9257590007e-008;-6.8121032371e-008;
2.3925781250e-001;-4.5609336752e-008;2.6817175147e-009;-5.2587864730e-008;-2.4119410469e-008;-4.9327439910e-008;-6.8337037362e-008;
2.4316406250e-001;-4.5436646445e-008;2.8619397963e-009;-5.2527315830e-008;-2.4073543159e-008;-4.9322565587e-008;-6.8421059041e-008;
2.4707031250e-001;-4.5571987073e-008;2.9644895427e-009;-5.2545015450e-008;-2.4171667334e-008;-4.9482672182e-008;-6.8635728212e-008;
2.5195312500e-001;-4.5618836708e-008;3.0008111551e-009;-5.2807582307e-008;-2.4163732348e-008;-4.9447869799e-008;-6.8849786317e-008;
2.5585937500e-001;-4.5343618638e-008;3.0219782232e-009;-5.2685116714e-008;-2.4091113104e-008;-4.9558241955e-008;-6.8847128887e-008;
2.5976562500e-001;-4.5398895310e-008;3.1002092005e-009;-5.2644637094e-008;-2.4139794164e-008;-4.9762000742e-008;-6.8980860135e-008;
2.6367187500e-001;-4.5422790862e-008;2.9446411975e-009;-5.3070952077e-008;-2.4294648071e-008;-4.9706880390e-008;-6.9209605158e-008;
2.6757812500e-001;-4.5317559483e-008;3.0149149843e-009;-5.3106091968e-008;-2.4266462617e-008;-4.9680306091e-008;-6.9234552313e-008;
2.7148437500e-001;-4.5332466669e-008;3.1373801335e-009;-5.2875016365e-008;-2.4203519189e-008;-4.9845887418e-008;-6.9261282931e-008;
2.7539062500e-001;-4.5349320743e-008;3.1094182784e-009;-5.2978975873e-008;-2.4253877129e-008;-4.9876330621e-008;-6.9398275571e-008;
2.7929687500e-001;-4.5362639867e-008;3.0893687608e-009;-5.3101889108e-008;-2.4314719127e-008;-4.9892779685e-008;-6.9528830693e-008;
2.8320312500e-001;-4.5363556467e-008;3.0787068450e-009;-5.3112149345e-008;-2.4347196259e-008;-4.9959322013e-008;-6.9615154530e-008;
2.8710937500e-001;-4.5361279177e-008;3.0798692485e-009;-5.3134051825e-008;-2.4380097940e-008;-5.0018734044e-008;-6.9711852291e-008;
2.9199218750e-001;-4.5350883937e-008;3.0939508733e-009;-5.3146411716e-008;-2.4407254884e-008;-5.0065917634e-008;-6.9819293458e-008;
2.9589843750e-001;-4.5351377764e-008;3.1008127177e-009;-5.3195631011e-008;-2.4450550029e-008;-5.0104585370e-008;-6.9942274195e-008;
2.9980468750e-001;-4.5345675659e-008;3.1094629094e-009;-5.3241564046e-008;-2.4468834070e-008;-5.0122377360e-008;-7.0025485854e-008;
3.0371093750e-001;-4.5329493048e-008;3.1170401815e-009;-5.3273549128e-008;-2.4479831495e-008;-5.0127294315e-008;-7.0094600346e-008;
3.0761718750e-001;-4.5317623432e-008;3.1205940054e-009;-5.3282334989e-008;-2.4489128947e-008;-5.0145064989e-008;-7.0176675138e-008;
3.1152343750e-001;-4.5302829932e-008;3.1341169660e-009;-5.3312017911e-008;-2.4509335006e-008;-5.0170257282e-008;-7.0281593878e-008;
3.1542968750e-001;-4.5281126404e-008;3.1537192857e-009;-5.3326164817e-008;-2.4515706798e-008;-5.0178304178e-008;-7.0370418825e-008;
3.1933593750e-001;-4.5268158999e-008;3.1711313575e-009;-5.3344987094e-008;-2.4524981157e-008;-5.0201883539e-008;-7.0450731471e-008;
3.2324218750e-001;-4.5273726101e-008;3.1661244737e-009;-5.3393556243e-008;-2.4544025479e-008;-5.0227029647e-008;-7.0538284547e-008;
3.2714843750e-001;-4.5260247106e-008;3.1694997737e-009;-5.3440093239e-008;-2.4571630064e-008;-5.0238988081e-008;-7.0618213499e-008;
3.3105468750e-001;-4.5265746706e-008;3.1825977409e-009;-5.3458062865e-008;-2.4571809476e-008;-5.0252310757e-008;-7.0653840112e-008;
3.3593750000e-001;-4.5279850980e-008;3.1918738763e-009;-5.3448140136e-008;-2.4545478539e-008;-5.0255305695e-008;-7.0653193518e-008;
3.3984375000e-001;-4.5281147720e-008;3.1898621522e-009;-5.3433385716e-008;-2.4544069888e-008;-5.0255973605e-008;-7.0681601017e-008;
3.4375000000e-001;-4.5254616055e-008;3.2166618258e-009;-5.3415796231e-008;-2.4531642495e-008;-5.0247415118e-008;-7.0694945009e-008;
3.4765625000e-001;-4.5265476700e-008;3.2052624999e-009;-5.3420890822e-008;-2.4551983557e-008;-5.0263285090e-008;-7.0720652445e-008;
3.5156250000e-001;-4.5257053216e-008;3.2119233939e-009;-5.3356565388e-008;-2.4528468145e-008;-5.0244238992e-008;-7.0676684061e-008;
3.5546875000e-001;-4.5250725833e-008;3.2159912511e-009;-5.3298538916e-008;-2.4506764618e-008;-5.0227363602e-008;-7.0647850237e-008;
3.5937500000e-001;-4.5252470215e-008;3.2037426045e-009;-5.3251266507e-008;-2.4505915519e-008;-5.0223118109e-008;-7.0638755290e-008;
3.6328125000e-001;-4.5246704161e-008;3.2072517975e-009;-5.3202089845e-008;-2.4498628903e-008;-5.0205212432e-008;-7.0608805913e-008;
3.6718750000e-001;-4.5257387171e-008;3.2023343977e-009;-5.3148109913e-008;-2.4478758576e-008;-5.0169763455e-008;-7.0542107267e-008;
3.7109375000e-001;-4.5307523067e-008;3.2026026275e-009;-5.3122072075e-008;-2.4457278869e-008;-5.0140929631e-008;-7.0486876780e-008;
3.7597656250e-001;-4.5375472268e-008;3.2067599687e-009;-5.3097441111e-008;-2.4435060197e-008;-5.0128303286e-008;-7.0438147759e-008;
3.7988281250e-001;-4.5388098613e-008;3.2038096620e-009;-5.3067243044e-008;-2.4425583334e-008;-5.0103132310e-008;-7.0397959462e-008;
3.8378906250e-001;-4.5383831804e-008;3.1952711588e-009;-5.2996320221e-008;-2.4400929277e-008;-5.0061292001e-008;-7.0322208501e-008;
3.8769531250e-001;-4.5387853476e-008;3.1827542823e-009;-5.2939032713e-008;-2.4379472663e-008;-5.0026912390e-008;-7.0265926411e-008;
3.9160156250e-001;-4.5375784907e-008;3.1940865508e-009;-5.2876625745e-008;-2.4342234894e-008;-4.9981853323e-008;-7.0204791314e-008;
3.9550781250e-001;-4.5400415871e-008;3.1740818862e-009;-5.2847457965e-008;-2.4350795158e-008;-4.9970832805e-008;-7.0173101108e-008;
3.9941406250e-001;-4.5379316305e-008;3.1847435800e-009;-5.2777988202e-008;-2.4303721702e-008;-4.9922842749e-008;-7.0069432923e-008;
4.0332031250e-001;-4.5335575294e-008;3.2098446123e-009;-5.2706752740e-008;-2.4242298835e-008;-4.9865334972e-008;-6.9950274906e-008;
4.0722656250e-001;-4.5325851517e-008;3.2039884079e-009;-5.2683173379e-008;-2.4216818773e-008;-4.9851809791e-008;-6.9885949472e-008;
4.1113281250e-001;-4.5356561174e-008;3.1358826647e-009;-5.2715023457e-008;-2.4257431619e-008;-4.9874543606e-008;-6.9884201537e-008;
4.1503906250e-001;-4.5289059614e-008;3.1320157579e-009;-5.2676334406e-008;-2.4225894180e-008;-4.9839762539e-008;-6.9799781954e-008;
4.1992187500e-001;-4.5270283522e-008;3.1393918576e-009;-5.2644011816e-008;-2.4177234437e-008;-4.9801897717e-008;-6.9687594362e-008;
4.2382812500e-001;-4.5267064763e-008;3.1492266572e-009;-5.2614776536e-008;-2.4133356646e-008;-4.9763833943e-008;-6.9603039776e-008;
4.2773437500e-001;-4.5261881354e-008;3.1543676560e-009;-5.2609948398e-008;-2.4105350604e-008;-4.9736250674e-008;-6.9530933899e-008;
4.3164062500e-001;-4.5286959960e-008;3.1142908252e-009;-5.2625818370e-008;-2.4109283459e-008;-4.9720583206e-008;-6.9478652165e-008;
4.3554687500e-001;-4.5226027368e-008;3.1842966042e-009;-5.2562452169e-008;-2.4012010158e-008;-4.9634820698e-008;-6.9309542994e-008;
4.3945312500e-001;-4.5318877540e-008;3.0879605539e-009;-5.2620052315e-008;-2.4049672476e-008;-4.9669822033e-008;-6.9299836980e-008;
4.4335937500e-001;-4.5349988653e-008;3.0509237359e-009;-5.2649845372e-008;-2.4050073932e-008;-4.9671744051e-008;-6.9257438895e-008;
4.4726562500e-001;-4.5303387708e-008;3.1094853359e-009;-5.2622464608e-008;-2.3981522546e-008;-4.9612737030e-008;-6.9131530722e-008;
4.5117187500e-001;-4.5307366747e-008;3.1003881684e-009;-5.2595552802e-008;-2.3946675753e-008;-4.9555648474e-008;-6.9016685700e-008;
4.5507812500e-001;-4.5319815456e-008;3.0652511640e-009;-5.2602214140e-008;-2.3948530270e-008;-4.9522501655e-008;-6.8944402187e-008;
4.5996093750e-001;-4.5396035375e-008;2.9817897040e-009;-5.2655479976e-008;-2.3989390030e-008;-4.9545054281e-008;-6.8911255369e-008;
4.6386718750e-001;-4.5390425640e-008;2.9884505981e-009;-5.2661558669e-008;-2.3960668116e-008;-4.9522480339e-008;-6.8807430864e-008;
4.6777343750e-001;-4.5408327765e-008;2.9739890550e-009;-5.2629104630e-008;-2.3927855253e-008;-4.9485734621e-008;-6.8674886222e-008;
4.7167968750e-001;-4.5394468629e-008;2.9799120949e-009;-5.2598036149e-008;-2.3898417467e-008;-4.9437968386e-008;-6.8557540089e-008;
4.7558593750e-001;-4.5379785263e-008;2.9986206851e-009;-5.2560597652e-008;-2.3846450148e-008;-4.9385107559e-008;-6.8427382871e-008;
4.7949218750e-001;-4.5422275718e-008;2.9568898441e-009;-5.2586749177e-008;-2.3872422261e-008;-4.9381640110e-008;-6.8366318828e-008;
4.8339843750e-001;-4.5426389761e-008;2.9472786434e-009;-5.2553890129e-008;-2.3847634978e-008;-4.9348784614e-008;-6.8255900487e-008;
4.8730468750e-001;-4.5410160965e-008;2.9420259562e-009;-5.2497789227e-008;-2.3817548822e-008;-4.9304528460e-008;-6.8157532951e-008;
4.9121093750e-001;-4.5391811199e-008;2.9481279640e-009;-5.2435382258e-008;-2.3772152247e-008;-4.9248736644e-008;-6.8058582769e-008;
4.9511718750e-001;-4.5435978535e-008;2.9163214066e-009;-5.2434756981e-008;-2.3792001258e-008;-4.9246168032e-008;-6.8031710043e-008;
4.9902343750e-001;-4.5482558164e-008;2.8709250532e-009;-5.2445372489e-008;-2.3834470397e-008;-4.9243819689e-008;-6.7986498209e-008;
5.0390625000e-001;-4.5504663149e-008;2.8629902893e-009;-5.2441887277e-008;-2.3834022755e-008;-4.9234881061e-008;-6.7901623879e-008;
5.0781250000e-001;-4.5522813963e-008;2.8354527615e-009;-5.2467232337e-008;-2.3865515786e-008;-4.9242903088e-008;-6.7924538882e-008;
5.1171875000e-001;-4.5525787584e-008;2.8244333539e-009;-5.2482253210e-008;-2.3895289303e-008;-4.9242970590e-008;-6.7974916362e-008;
5.1562500000e-001;-4.5460520681e-008;2.8808269104e-009;-5.2482299395e-008;-2.3886034484e-008;-4.9230855836e-008;-6.7995500785e-008;
5.1953125000e-001;-4.5460787135e-008;2.8898345938e-009;-5.2525951588e-008;-2.3909146663e-008;-4.9272991021e-008;-6.8076104753e-008;
5.2343750000e-001;-4.5516017622e-008;2.8490874104e-009;-5.2629328451e-008;-2.3975889718e-008;-4.9352742337e-008;-6.8221190475e-008;
5.2734375000e-001;-4.5478959265e-008;2.8851407929e-009;-5.2705011910e-008;-2.4001236554e-008;-4.9398451551e-008;-6.8336589720e-008;
5.3125000000e-001;-4.5483719902e-008;2.8821680598e-009;-5.2774680626e-008;-2.4049001013e-008;-4.9451802653e-008;-6.8476715853e-008;
5.3515625000e-001;-4.5494068956e-008;2.8659183915e-009;-5.2830337438e-008;-2.4093459672e-008;-4.9498297017e-008;-6.8599874226e-008;
5.3906250000e-001;-4.5460854636e-008;2.8963613730e-009;-5.2872312750e-008;-2.4104835461e-008;-4.9526793333e-008;-6.8716460078e-008;
5.4394531250e-001;-4.5492484446e-008;2.8502498139e-009;-5.2964736597e-008;-2.4181995073e-008;-4.9597939977e-008;-6.8906651052e-008;
5.4785156250e-001;-4.5509626290e-008;2.8445723554e-009;-5.3039773462e-008;-2.4246009644e-008;-4.9665217716e-008;-6.9054060248e-008;
5.5175781250e-001;-4.5494537915e-008;2.8698521337e-009;-5.3056066207e-008;-2.4259488640e-008;-4.9700535243e-008;-6.9132937597e-008;
5.5566406250e-001;-4.5470578414e-008;2.8893205606e-009;-5.3084185936e-008;-2.4250056185e-008;-4.9734733665e-008;-6.9214230791e-008;
5.5957031250e-001;-4.5427842821e-008;2.9271174373e-009;-5.3108035303e-008;-2.4232218010e-008;-4.9740609853e-008;-6.9287722226e-008;
5.6347656250e-001;-4.5447489327e-008;2.8998259349e-009;-5.3183448756e-008;-2.4293596468e-008;-4.9789719014e-008;-6.9432161354e-008;
5.6738281250e-001;-4.5441790775e-008;2.9126558942e-009;-5.3195162053e-008;-2.4308841162e-008;-4.9802054036e-008;-6.9505226463e-008;
5.7128906250e-001;-4.5420399886e-008;2.9362592358e-009;-5.3185683413e-008;-2.4322162062e-008;-4.9817209913e-008;-6.9580131878e-008;
5.7519531250e-001;-4.5448494745e-008;2.9268267809e-009;-5.3214428419e-008;-2.4357053263e-008;-4.9862965312e-008;-6.9692447369e-008;
5.7910156250e-001;-4.5426165940e-008;2.9590581097e-009;-5.3222183993e-008;-2.4365993667e-008;-4.9873982277e-008;-6.9777186695e-008;
5.8398437500e-001;-4.5406988392e-008;2.9960054437e-009;-5.3197442895e-008;-2.4360652162e-008;-4.9871054841e-008;-6.9817460258e-008;
5.8789062500e-001;-4.5400170734e-008;3.0128586292e-009;-5.3210854389e-008;-2.4370084617e-008;-4.9891731635e-008;-6.9865649266e-008;
5.9179687500e-001;-4.5383696801e-008;2.9867071039e-009;-5.3233382147e-008;-2.4412329935e-008;-4.9898726928e-008;-6.9977588169e-008;
5.9570312500e-001;-4.5411614025e-008;2.9357452025e-009;-5.3271918432e-008;-2.4464297255e-008;-4.9930086732e-008;-7.0108349348e-008;
5.9960937500e-001;-4.5402426707e-008;2.9391649115e-009;-5.3251554277e-008;-2.4455802716e-008;-4.9914930855e-008;-7.0130298013e-008;
6.0351562500e-001;-4.5426521211e-008;2.8994460166e-009;-5.3258350619e-008;-2.4485128591e-008;-4.9933305490e-008;-7.0181862100e-008;
6.0742187500e-001;-4.5449521480e-008;2.8666335972e-009;-5.3287855906e-008;-2.4513425956e-008;-4.9952660675e-008;-7.0250685269e-008;
6.1132812500e-001;-4.5454036979e-008;2.8507192162e-009;-5.3317894100e-008;-2.4542796240e-008;-4.9954696379e-008;-7.0344739811e-008;
6.1523437500e-001;-4.5439644936e-008;2.8278532849e-009;-5.3313289783e-008;-2.4549033029e-008;-4.9953978731e-008;-7.0391742213e-008;
6.1914062500e-001;-4.5476994615e-008;2.7707669492e-009;-5.3341498329e-008;-2.4571585655e-008;-4.9975191985e-008;-7.0476325220e-008;
6.2304687500e-001;-4.5500037515e-008;2.7371052091e-009;-5.3386671084e-008;-2.4604084103e-008;-4.9982681105e-008;-7.0553660692e-008;
6.2792968750e-001;-4.5470958554e-008;2.7546736003e-009;-5.3361837615e-008;-2.4582426761e-008;-4.9953889913e-008;-7.0571900324e-008;
6.3183593750e-001;-4.5498541823e-008;2.6945474740e-009;-5.3355535101e-008;-2.4617495598e-008;-4.9961982995e-008;-7.0625610249e-008;
6.3574218750e-001;-4.5512667413e-008;2.6360083005e-009;-5.3314231252e-008;-2.4636852558e-008;-4.9961645487e-008;-7.0645796768e-008;
6.3964843750e-001;-4.5482043021e-008;2.6393833785e-009;-5.3259199717e-008;-2.4623329153e-008;-4.9959925974e-008;-7.0619037729e-008;
6.4355468750e-001;-4.5488079081e-008;2.6213677895e-009;-5.3242054321e-008;-2.4624961625e-008;-4.9960863890e-008;-7.0622952819e-008;
6.4746093750e-001;-4.5460073039e-008;2.6042912271e-009;-5.3224219698e-008;-2.4628089790e-008;-4.9937238344e-008;-7.0645192807e-008;
6.5136718750e-001;-4.5486068245e-008;2.5218578337e-009;-5.3216350437e-008;-2.4629208895e-008;-4.9925571233e-008;-7.0637142358e-008;
6.5527343750e-001;-4.5509693791e-008;2.5273563242e-009;-5.3235083897e-008;-2.4682002220e-008;-4.9901476729e-008;-7.0593756618e-008;
6.5917968750e-001;-4.5465391452e-008;2.5186839281e-009;-5.3226880681e-008;-2.4692038636e-008;-4.9879236741e-008;-7.0604642133e-008;
6.6308593750e-001;-4.5429114692e-008;2.5076420940e-009;-5.3223548235e-008;-2.4724783998e-008;-4.9869825602e-008;-7.0581108957e-008;
6.6796875000e-001;-4.5456296505e-008;2.4905206786e-009;-5.3177860337e-008;-2.4661371612e-008;-4.9823423609e-008;-7.0525807416e-008;
6.7187500000e-001;-4.5465057497e-008;2.5038646712e-009;-5.3154057156e-008;-2.4616355176e-008;-4.9796714308e-008;-7.0469887703e-008;
6.7578125000e-001;-4.5472546617e-008;2.4821165123e-009;-5.3165994274e-008;-2.4620065986e-008;-4.9792845402e-008;-7.0477980785e-008;
6.7968750000e-001;-4.5438213192e-008;2.4475830251e-009;-5.3174510128e-008;-2.4598721282e-008;-4.9778005717e-008;-7.0459762469e-008;
6.8359375000e-001;-4.5438948604e-008;2.4071264981e-009;-5.3142969136e-008;-2.4543243882e-008;-4.9756973652e-008;-7.0395991258e-008;
6.8750000000e-001;-4.5535465176e-008;2.3456143694e-009;-5.3147953594e-008;-2.4590695702e-008;-4.9713118955e-008;-7.0302228039e-008;
6.9140625000e-001;-4.5612800648e-008;2.3359807422e-009;-5.3263402577e-008;-2.4616557681e-008;-4.9660076940e-008;-7.0348335157e-008;
6.9531250000e-001;-4.5408103944e-008;2.3840147634e-009;-5.3251511645e-008;-2.4524824838e-008;-4.9600419771e-008;-7.0273237895e-008;
6.9921875000e-001;-4.5386311598e-008;2.4122897013e-009;-5.3062684913e-008;-2.4491477291e-008;-4.9583814388e-008;-7.0165100396e-008;
7.0312500000e-001;-4.5420801342e-008;2.4261030962e-009;-5.3112461984e-008;-2.4524178244e-008;-4.9582002504e-008;-7.0104121619e-008;
7.0703125000e-001;-4.5373504065e-008;2.4320039316e-009;-5.3062237271e-008;-2.4513470365e-008;-4.9574961025e-008;-7.0008056241e-008;
7.1191406250e-001;-4.5363712786e-008;2.3646358205e-009;-5.3014627355e-008;-2.4449164471e-008;-4.9574961025e-008;-6.9955127913e-008;
7.1582031250e-001;-4.5332892995e-008;2.4018738110e-009;-5.2996366406e-008;-2.4434569923e-008;-4.9559762516e-008;-6.9881991749e-008;
7.1972656250e-001;-4.5398806492e-008;2.4119319875e-009;-5.3079268980e-008;-2.4487029293e-008;-4.9490068932e-008;-6.9826000981e-008;
7.2363281250e-001;-4.5400483373e-008;2.4085793360e-009;-5.3185015503e-008;-2.4475562910e-008;-4.9484995657e-008;-6.9850543127e-008;
7.2753906250e-001;-4.5354504152e-008;2.4374129381e-009;-5.3034007408e-008;-2.4370352847e-008;-4.9437296923e-008;-6.9761959764e-008;
7.3144531250e-001;-4.5229292311e-008;2.4775343999e-009;-5.2862745292e-008;-2.4395587772e-008;-4.9448740214e-008;-6.9607850151e-008;
7.3535156250e-001;-4.5296054907e-008;2.4441184632e-009;-5.2888520230e-008;-2.4348873140e-008;-4.9445208816e-008;-6.9548747206e-008;
7.3925781250e-001;-4.5401556292e-008;2.4551156663e-009;-5.2983402554e-008;-2.4329136039e-008;-4.9416755132e-008;-6.9535268210e-008;
7.4316406250e-001;-4.5393420578e-008;2.4434703150e-009;-5.3028283986e-008;-2.4339305682e-008;-4.9382489209e-008;-6.9435337480e-008;
7.4707031250e-001;-4.5284902939e-008;2.4471584759e-009;-5.2921642180e-008;-2.4359623652e-008;-4.9386446932e-008;-6.9374692657e-008;
7.5195312500e-001;-4.5384144443e-008;2.3624899814e-009;-5.2895536840e-008;-2.4322162062e-008;-4.9382713030e-008;-6.9323753848e-008;
7.5585937500e-001;-4.5317268160e-008;2.4556521261e-009;-5.2901928171e-008;-2.4271736621e-008;-4.9250772349e-008;-6.9116779855e-008;
7.5976562500e-001;-4.5303544027e-008;2.4839492685e-009;-5.2754185020e-008;-2.4145046851e-008;-4.9244444966e-008;-6.9024622462e-008;
7.6367187500e-001;-4.5356784995e-008;2.3942070548e-009;-5.2828259101e-008;-2.4217936101e-008;-4.9253856105e-008;-6.8921629293e-008;
7.6757812500e-001;-4.5401243653e-008;2.4281370248e-009;-5.2766186087e-008;-2.4167979618e-008;-4.9207276476e-008;-6.8854369317e-008;
7.7148437500e-001;-4.5353925060e-008;2.4558755030e-009;-5.2713659215e-008;-2.4245652597e-008;-4.9170775895e-008;-6.8727544544e-008;
7.7539062500e-001;-4.5279580974e-008;2.5127384617e-009;-5.2553531305e-008;-2.4062076776e-008;-4.9138989766e-008;-6.8567864275e-008;
7.7929687500e-001;-4.5284121342e-008;2.4909678764e-009;-5.2391527561e-008;-2.4061227677e-008;-4.9123634938e-008;-6.8421151411e-008;
7.8320312500e-001;-4.5307746888e-008;2.4657103026e-009;-5.2359162339e-008;-2.4115788477e-008;-4.9065342012e-008;-6.8251701180e-008;
7.8710937500e-001;-4.5330210696e-008;2.4368542739e-009;-5.2314682364e-008;-2.4048688374e-008;-4.9025981497e-008;-6.8112022689e-008;
7.9199218750e-001;-4.5333269583e-008;2.4003761201e-009;-5.2243493087e-008;-2.3955795569e-008;-4.9005461022e-008;-6.7908267454e-008;
7.9589843750e-001;-4.5354795475e-008;2.4537298859e-009;-5.2168925180e-008;-2.3984249253e-008;-4.8960178134e-008;-6.7760339562e-008;
7.9980468750e-001;-4.5361748136e-008;2.4397153187e-009;-5.2026724262e-008;-2.3983220743e-008;-4.8940641761e-008;-6.7716264596e-008;
8.0371093750e-001;-4.5413088401e-008;2.3780468705e-009;-5.1999343498e-008;-2.3998754983e-008;-4.8939792663e-008;-6.7594420727e-008;
8.0761718750e-001;-4.5432155815e-008;2.3052919573e-009;-5.2051579047e-008;-2.3889096923e-008;-4.8922089491e-008;-6.7518158176e-008;
8.1152343750e-001;-4.5437563045e-008;2.3687485307e-009;-5.2127060002e-008;-2.4034584101e-008;-4.9013753056e-008;-6.7707972562e-008;
8.1542968750e-001;-4.5454125797e-008;2.3293422746e-009;-5.2295170860e-008;-2.4302023505e-008;-4.9117332424e-008;-6.7889246225e-008;
8.1933593750e-001;-4.5327528397e-008;2.5049375907e-009;-5.2249035321e-008;-2.3981632680e-008;-4.9131525515e-008;-6.7989290642e-008;
8.2324218750e-001;-4.5334523691e-008;2.5186392971e-009;-5.2233836811e-008;-2.4105707652e-008;-4.9241204891e-008;-6.8249981666e-008;
8.2714843750e-001;-4.5382670066e-008;2.3918378389e-009;-5.2315577648e-008;-2.4201664672e-008;-4.9321872808e-008;-6.8493811511e-008;
8.3105468750e-001;-4.5368697243e-008;2.4737345505e-009;-5.2486118562e-008;-2.4262527987e-008;-4.9396952306e-008;-6.8547748810e-008;
8.3593750000e-001;-4.5405197824e-008;2.3255424253e-009;-5.2615849455e-008;-2.4246366692e-008;-4.9478067865e-008;-6.8744128612e-008;
8.3984375000e-001;-4.5440469165e-008;2.2955912726e-009;-5.2778233339e-008;-2.4409356314e-008;-4.9530257229e-008;-6.8835525724e-008;
8.4375000000e-001;-4.5330455833e-008;2.4828317180e-009;-5.2811987672e-008;-2.4346078931e-008;-4.9478089181e-008;-6.9002162206e-008;
8.4765625000e-001;-4.5244309632e-008;2.6088062821e-009;-5.2760128710e-008;-2.4169567681e-008;-4.9573330330e-008;-6.9195010610e-008;
8.5156250000e-001;-4.5273367277e-008;2.7110207412e-009;-5.2642693760e-008;-2.4310450542e-008;-4.9672348013e-008;-6.9071155906e-008;
8.5546875000e-001;-4.5326924436e-008;2.4337474258e-009;-5.2873520673e-008;-2.4436872081e-008;-4.9685738190e-008;-6.9291459681e-008;
8.5937500000e-001;-4.5299991314e-008;2.6040452017e-009;-5.3015497770e-008;-2.4388144837e-008;-4.9714884653e-008;-6.9130884128e-008;
8.6328125000e-001;-4.5324153319e-008;2.5625157551e-009;-5.2921464544e-008;-2.4299296797e-008;-4.9748390296e-008;-6.9416849158e-008;
8.6718750000e-001;-4.5456161502e-008;2.2017139223e-009;-5.3183224935e-008;-2.4445633073e-008;-4.9829434801e-008;-6.9380284629e-008;
8.7109375000e-001;-4.5265412751e-008;2.3178312603e-009;-5.3283965684e-008;-2.4450908853e-008;-4.9697202797e-008;-6.9467922970e-008;
8.7597656250e-001;-4.5146165917e-008;2.7109312573e-009;-5.2947637386e-008;-2.4323883352e-008;-4.9770985555e-008;-6.9771978417e-008;
8.7988281250e-001;-4.5253116809e-008;2.6656914454e-009;-5.2977366494e-008;-2.4458396197e-008;-4.9912316058e-008;-6.9922045043e-008;
8.8378906250e-001;-4.5388816261e-008;2.3682120709e-009;-5.3231058672e-008;-2.4480144134e-008;-4.9907914246e-008;-6.9894504406e-008;
8.8769531250e-001;-4.5410562421e-008;2.1144750395e-009;-5.3386180809e-008;-2.4487698980e-008;-4.9894612886e-008;-6.9827159166e-008;
8.9160156250e-001;-4.5142297012e-008;2.8332176605e-009;-5.3187449112e-008;-2.4248043573e-008;-4.9881805353e-008;-6.9848127282e-008;
8.9550781250e-001;-4.5235371005e-008;2.5652648894e-009;-5.3251266507e-008;-2.4557236245e-008;-4.9960952708e-008;-6.9923679291e-008;
8.9941406250e-001;-4.5141270277e-008;2.8604196789e-009;-5.3186848703e-008;-2.4381371588e-008;-4.9965962035e-008;-6.9981368256e-008;
9.0332031250e-001;-4.5086263611e-008;2.9353650621e-009;-5.2997258138e-008;-2.4409043675e-008;-4.9998615026e-008;-7.0288990628e-008;
9.0722656250e-001;-4.5172068752e-008;2.4222137629e-009;-5.3123322630e-008;-2.4480748095e-008;-5.0026756071e-008;-7.0195767421e-008;
9.1113281250e-001;-4.5355957212e-008;2.4226831652e-009;-5.3378691689e-008;-2.4435530932e-008;-5.0021146336e-008;-7.0006464625e-008;
9.1503906250e-001;-4.5297731788e-008;2.6802422504e-009;-5.3776822995e-008;-2.4487363248e-008;-4.9815803038e-008;-6.9943794756e-008;
9.1992187500e-001;-4.5167890761e-008;2.6947710730e-009;-5.3418119705e-008;-2.4589176917e-008;-4.9905789723e-008;-7.0212351488e-008;
9.2382812500e-001;-4.5169297636e-008;2.7322548668e-009;-5.3264407995e-008;-2.4560343093e-008;-4.9915289679e-008;-7.0195298463e-008;
9.2773437500e-001;-4.5321336017e-008;2.5555644267e-009;-5.3309221926e-008;-2.4481909833e-008;-4.9988692297e-008;-7.0111745742e-008;
9.3164062500e-001;-4.5307096741e-008;2.6355835292e-009;-5.3193261351e-008;-2.4342659444e-008;-5.0017749942e-008;-6.9997547314e-008;
9.3554687500e-001;-4.5128441428e-008;2.7653577206e-009;-5.3123233812e-008;-2.4340558014e-008;-4.9984421935e-008;-7.0291562793e-008;
9.3945312500e-001;-4.5290690309e-008;2.5921318425e-009;-5.3284392010e-008;-2.4285817801e-008;-4.9920050316e-008;-7.0271070740e-008;
9.4335937500e-001;-4.5221600686e-008;2.6736262093e-009;-5.3332783523e-008;-2.4358863371e-008;-4.9822975967e-008;-7.0020391263e-008;
9.4726562500e-001;-4.5063508480e-008;2.9744806618e-009;-5.3023455848e-008;-2.4438213231e-008;-4.9932054935e-008;-7.0159686061e-008;
9.5117187500e-001;-4.5020012607e-008;2.8041380329e-009;-5.3092211516e-008;-2.4467828652e-008;-4.9809877112e-008;-7.0047725842e-008;
9.5507812500e-001;-4.5180474473e-008;2.9559288350e-009;-5.2955329011e-008;-2.4411054511e-008;-4.9956149439e-008;-7.0021556553e-008;
9.5996093750e-001;-4.5132889426e-008;2.8188456014e-009;-5.3206850481e-008;-2.4466912052e-008;-4.9832454607e-008;-6.9966816341e-008;
9.6386718750e-001;-4.5057092279e-008;2.9102864563e-009;-5.2765024350e-008;-2.4355376382e-008;-4.9889695930e-008;-6.9855389029e-008;
9.6777343750e-001;-4.5259422876e-008;2.7627427013e-009;-5.2952266572e-008;-2.4380790720e-008;-4.9915936273e-008;-6.9819051873e-008;
9.7167968750e-001;-4.5343909960e-008;2.5323856345e-009;-5.3072852779e-008;-2.4496014106e-008;-4.9778162037e-008;-6.9705414774e-008;
9.7558593750e-001;-4.5067263699e-008;2.8489757220e-009;-5.2916369953e-008;-2.4321714420e-008;-4.9588013695e-008;-6.9603913744e-008;
9.7949218750e-001;-4.5123723424e-008;2.8246793793e-009;-5.2979512333e-008;-2.4342659444e-008;-4.9684103942e-008;-6.9613548703e-008;
9.8339843750e-001;-4.5109395330e-008;2.7315842921e-009;-5.2844374210e-008;-2.4396147325e-008;-4.9696801341e-008;-6.9531964186e-008;
9.8730468750e-001;-4.5141629101e-008;2.7500244304e-009;-5.2670007022e-008;-2.4336154425e-008;-4.9758135390e-008;-6.9376838496e-008;
9.9121093750e-001;-4.5141248961e-008;2.6394504360e-009;-5.2660261929e-008;-2.4308773661e-008;-4.9631040611e-008;-6.9244897816e-008;
9.9511718750e-001;-4.5116525627e-008;2.8417113107e-009;-5.2513748017e-008;-2.4256314290e-008;-4.9665107582e-008;-6.9107372269e-008;
9.9902343750e-001;-4.5136083315e-008;2.8596822688e-009;-5.2443272835e-008;-2.4266864074e-008;-4.9618012810e-008;-6.9031798944e-008;
1.0039062500e+000;-4.5084920686e-008;2.8647784145e-009;-5.2329568234e-008;-2.4179469094e-008;-4.9576303951e-008;-6.8869795200e-008;
1.0078125000e+000;-4.5144176397e-008;2.7360322896e-009;-5.2420851659e-008;-2.4190823567e-008;-4.9528225077e-008;-6.8812077814e-008;
1.0117187500e+000;-4.5132953375e-008;2.7449507112e-009;-5.2247067117e-008;-2.4131033172e-008;-4.9468969365e-008;-6.8667063147e-008;
1.0156250000e+000;-4.5129937121e-008;2.7337077046e-009;-5.2192262956e-008;-2.4114379826e-008;-4.9453657169e-008;-6.8560311206e-008;
1.0195312500e+000;-4.5158078166e-008;2.6709663370e-009;-5.2211440504e-008;-2.4156491918e-008;-4.9383228173e-008;-6.8520236596e-008;
1.0234375000e+000;-4.5200994947e-008;2.6586057800e-009;-5.2229186309e-008;-2.4162817525e-008;-4.9364274446e-008;-6.8490592753e-008;
1.0273437500e+000;-4.5225625911e-008;2.6747886128e-009;-5.2203414924e-008;-2.4133580467e-008;-4.9406093439e-008;-6.8456060376e-008;
1.0312500000e+000;-4.5229089807e-008;2.6844444445e-009;-5.2240118009e-008;-2.4152781108e-008;-4.9403457325e-008;-6.8473809733e-008;
1.0351562500e+000;-4.5228887302e-008;2.6915523144e-009;-5.2215550994e-008;-2.4141291632e-008;-4.9394270007e-008;-6.8469248049e-008;
1.0390625000e+000;-4.5228887302e-008;2.6999118496e-009;-5.2238462445e-008;-2.4154122258e-008;-4.9435396221e-008;-6.8523455354e-008;
1.0439453125e+000;-4.5233111479e-008;2.6921558316e-009;-5.2308401166e-008;-2.4199943383e-008;-4.9462620666e-008;-6.8642073359e-008;
1.0478515625e+000;-4.5237808166e-008;2.6864561686e-009;-5.2404601547e-008;-2.4255799147e-008;-4.9491209353e-008;-6.8779129947e-008;
1.0517578125e+000;-4.5221892009e-008;2.6943463016e-009;-5.2452815424e-008;-2.4282510225e-008;-4.9504443211e-008;-6.8870754433e-008;
1.0556640625e+000;-4.5213354838e-008;2.7068631780e-009;-5.2497252767e-008;-2.4296950230e-008;-4.9549210956e-008;-6.8967068501e-008;
1.0595703125e+000;-4.5209642252e-008;2.7101265676e-009;-5.2576687892e-008;-2.4321380465e-008;-4.9591324824e-008;-6.9083476717e-008;
1.0634765625e+000;-4.5207073640e-008;2.7145075077e-009;-5.2631005332e-008;-2.4339977145e-008;-4.9598206431e-008;-6.9187613860e-008;
1.0673828125e+000;-4.5211699273e-008;2.7095454769e-009;-5.2642224802e-008;-2.4342748262e-008;-4.9627825405e-008;-6.9240250866e-008;
1.0712890625e+000;-4.5164650686e-008;2.7433189054e-009;-5.2626869973e-008;-2.4320216951e-008;-4.9606946106e-008;-6.9262199531e-008;
1.0751953125e+000;-4.5163911722e-008;2.7548301418e-009;-5.2644594462e-008;-2.4316015867e-008;-4.9661821322e-008;-6.9315618134e-008;
1.0791015625e+000;-4.5168984997e-008;2.7505833167e-009;-5.2707356701e-008;-2.4350995886e-008;-4.9700599192e-008;-6.9405764691e-008;
1.0839843750e+000;-4.5164025408e-008;2.7515891787e-009;-5.2739590473e-008;-2.4365345297e-008;-4.9724427242e-008;-6.9461819407e-008;
1.0878906250e+000;-4.5167464435e-008;2.7515667522e-009;-5.2764622893e-008;-2.4371962226e-008;-4.9748209108e-008;-6.9513966139e-008;
1.0917968750e+000;-4.5167869445e-008;2.7725997054e-009;-5.2800050554e-008;-2.4374175567e-008;-4.9797876045e-008;-6.9569068728e-008;
1.0957031250e+000;-4.5168203400e-008;2.7806239533e-009;-5.2829935981e-008;-2.4383115971e-008;-4.9836611282e-008;-6.9636122646e-008;
1.0996093750e+000;-4.5164181728e-008;2.7671906988e-009;-5.2860443134e-008;-2.4414497091e-008;-4.9863725593e-008;-6.9707873251e-008;
1.1035156250e+000;-4.5156177464e-008;2.7675259862e-009;-5.2881276247e-008;-2.4434077872e-008;-4.9887439957e-008;-6.9752957188e-008;
1.1074218750e+000;-4.5141604232e-008;2.7820770132e-009;-5.2913328830e-008;-2.4437586177e-008;-4.9909814948e-008;-6.9808073988e-008;
1.1113281250e+000;-4.5152891204e-008;2.7965161298e-009;-5.2963621044e-008;-2.4453500558e-008;-4.9935650281e-008;-6.9882418074e-008;
1.1152343750e+000;-4.5164583184e-008;2.7950186610e-009;-5.3012726653e-008;-2.4473617799e-008;-4.9948795322e-008;-6.9956534787e-008;
1.1191406250e+000;-4.5162035889e-008;2.7834403671e-009;-5.3037894077e-008;-2.4472544879e-008;-4.9958764237e-008;-6.9987649454e-008;
1.1230468750e+000;-4.5155239548e-008;2.7804005764e-009;-5.3075378759e-008;-2.4473104432e-008;-4.9962562088e-008;-7.0030274912e-008;
1.1279296875e+000;-4.5157026562e-008;2.7844908601e-009;-5.3122874988e-008;-2.4490493189e-008;-4.9954582693e-008;-7.0096476179e-008;
1.1318359375e+000;-4.5163240259e-008;2.7872177899e-009;-5.3176879788e-008;-2.4509649421e-008;-4.9971728089e-008;-7.0158797882e-008;
1.1357421875e+000;-4.5153115025e-008;2.7957784976e-009;-5.3200636785e-008;-2.4509558827e-008;-4.9973472471e-008;-7.0184412948e-008;
1.1396484375e+000;-4.5135504223e-008;2.8141740049e-009;-5.3193442540e-008;-2.4485084182e-008;-4.9966072169e-008;-7.0188008294e-008;
1.1435546875e+000;-4.5119811887e-008;2.8242099770e-009;-5.3194870731e-008;-2.4476300098e-008;-4.9956216941e-008;-7.0219478232e-008;
1.1474609375e+000;-4.5129894488e-008;2.8053896983e-009;-5.3242839471e-008;-2.4515236063e-008;-4.9979036021e-008;-7.0290248289e-008;
1.1513671875e+000;-4.5130338577e-008;2.8152244980e-009;-5.3241834053e-008;-2.4518611141e-008;-4.9980982908e-008;-7.0300707478e-008;
1.1552734375e+000;-4.5123677239e-008;2.8268920538e-009;-5.3244225029e-008;-2.4516376484e-008;-4.9984535622e-008;-7.0333207702e-008;
1.1591796875e+000;-4.5109104008e-008;2.8278086539e-009;-5.3268205846e-008;-2.4527238907e-008;-5.0002661567e-008;-7.0395898888e-008;
1.1630859375e+000;-4.5095493562e-008;2.8319213641e-009;-5.3286758117e-008;-2.4544762667e-008;-5.0012094022e-008;-7.0443242350e-008;
1.1679687500e+000;-4.5093660361e-008;2.8447064704e-009;-5.3264319178e-008;-2.4537991195e-008;-5.0010910968e-008;-7.0442105482e-008;
1.1718750000e+000;-4.5090128964e-008;2.8547200159e-009;-5.3242526832e-008;-2.4516756625e-008;-5.0012943120e-008;-7.0438751720e-008;
1.1757812500e+000;-4.5109484148e-008;2.8405937602e-009;-5.3260830413e-008;-2.4519126285e-008;-5.0018151398e-008;-7.0468992419e-008;
1.1796875000e+000;-4.5084405542e-008;2.8207229885e-009;-5.3289554103e-008;-2.4537364141e-008;-5.0024141274e-008;-7.0524109219e-008;
1.1835937500e+000;-4.5068045296e-008;2.8187561174e-009;-5.3298204961e-008;-2.4545679267e-008;-5.0037261445e-008;-7.0547379494e-008;
1.1875000000e+000;-4.5096768986e-008;2.8242324035e-009;-5.3295767799e-008;-2.4537454735e-008;-5.0049152378e-008;-7.0541815944e-008;
1.1914062500e+000;-4.5110962077e-008;2.8529767437e-009;-5.3278267131e-008;-2.4502362805e-008;-5.0039879795e-008;-7.0511596562e-008;
1.1953125000e+000;-4.5110759572e-008;2.8719979728e-009;-5.3282512624e-008;-2.4482670113e-008;-5.0023473364e-008;-7.0502117921e-008;
1.1992187500e+000;-4.5096722801e-008;2.8829503229e-009;-5.3262464661e-008;-2.4466956461e-008;-4.9997701979e-008;-7.0469212687e-008;
1.2031250000e+000;-4.5078909494e-008;2.9084537001e-009;-5.3218631280e-008;-2.4423124856e-008;-4.9964420157e-008;-7.0393106455e-008;
1.2070312500e+000;-4.5085414513e-008;2.9027762416e-009;-5.3221850038e-008;-2.4419080091e-008;-4.9959904658e-008;-7.0367697447e-008;
1.2119140625e+000;-4.5089212364e-008;2.8921816053e-009;-5.3224667340e-008;-2.4425025558e-008;-4.9948482683e-008;-7.0352228931e-008;
1.2158203125e+000;-4.5107629632e-008;2.8687570097e-009;-5.3232490416e-008;-2.4443956192e-008;-4.9951676573e-008;-7.0339218894e-008;
1.2197265625e+000;-4.5052981790e-008;2.9119628930e-009;-5.3153609514e-008;-2.4378756791e-008;-4.9885159115e-008;-7.0217716086e-008;
1.2236328125e+000;-4.5069409538e-008;2.9094595622e-009;-5.3134009192e-008;-2.4380501173e-008;-4.9890321208e-008;-7.0165299348e-008;
1.2275390625e+000;-4.5125066350e-008;2.8527755713e-009;-5.3148447421e-008;-2.4418900679e-008;-4.9912138422e-008;-7.0163956423e-008;
1.2314453125e+000;-4.5119051606e-008;2.8393196683e-009;-5.3128061950e-008;-2.4415681921e-008;-4.9885382936e-008;-7.0120258044e-008;
1.2353515625e+000;-4.5100119195e-008;2.8641078398e-009;-5.3043393677e-008;-2.4364251061e-008;-4.9822016734e-008;-7.0001078711e-008;
1.2392578125e+000;-4.5134854076e-008;2.8330389146e-009;-5.3014648671e-008;-2.4365279572e-008;-4.9801361257e-008;-6.9937023284e-008;
1.2431640625e+000;-4.5100051693e-008;2.8754625347e-009;-5.2942027651e-008;-2.4293864698e-008;-4.9741348818e-008;-6.9823364868e-008;
1.2470703125e+000;-4.5105394975e-008;2.8688686982e-009;-5.2910579029e-008;-2.4277012400e-008;-4.9712379990e-008;-6.9760510257e-008;
1.2519531250e+000;-4.5104211921e-008;2.8587656686e-009;-5.2835613218e-008;-2.4238007157e-008;-4.9669399260e-008;-6.9644102041e-008;
1.2558593750e+000;-4.5064940224e-008;2.8664770557e-009;-5.2746784718e-008;-2.4194243053e-008;-4.9603816166e-008;-6.9524901392e-008;
1.2597656250e+000;-4.5140399862e-008;2.7765336696e-009;-5.2756821134e-008;-2.4241025187e-008;-4.9622883580e-008;-6.9509653144e-008;
1.2636718750e+000;-4.5165275964e-008;2.7691799964e-009;-5.2725550148e-008;-2.4232576834e-008;-4.9593513296e-008;-6.9429120231e-008;
1.2675781250e+000;-4.5134697757e-008;2.8105306971e-009;-5.2636277559e-008;-2.4167421842e-008;-4.9523350754e-008;-6.9263180080e-008;
1.2714843750e+000;-4.5212011912e-008;2.7359206012e-009;-5.2632678660e-008;-2.4204279470e-008;-4.9516980738e-008;-6.9197291452e-008;
1.2753906250e+000;-4.5221533185e-008;2.7141275893e-009;-5.2589967936e-008;-2.4177031932e-008;-4.9473754871e-008;-6.9079945320e-008;
1.2792968750e+000;-4.5169141316e-008;2.7772266709e-009;-5.2510529258e-008;-2.4088967265e-008;-4.9392191670e-008;-6.8902849648e-008;
1.2832031250e+000;-4.5235751145e-008;2.7079809506e-009;-5.2496336167e-008;-2.4113910868e-008;-4.9370509458e-008;-6.8819765886e-008;
1.2871093750e+000;-4.5253141678e-008;2.6352482418e-009;-5.2462919342e-008;-2.4130518028e-008;-4.9333340968e-008;-6.8723991831e-008;
1.2919921875e+000;-4.5246636660e-008;2.6293474065e-009;-5.2408292817e-008;-2.4094598317e-008;-4.9284054171e-008;-6.8585187307e-008;
1.2958984375e+000;-4.5324284770e-008;2.5961774952e-009;-5.2406168294e-008;-2.4100030416e-008;-4.9274508029e-008;-6.8480801474e-008;
1.2998046875e+000;-4.5341273847e-008;2.6082473958e-009;-5.2322437938e-008;-2.4033086632e-008;-4.9213625175e-008;-6.8276015952e-008;
1.3037109375e+000;-4.5386201464e-008;2.5826545347e-009;-5.2213607660e-008;-2.3960645024e-008;-4.9155531201e-008;-6.8044499812e-008;
1.3076171875e+000;-4.5478579125e-008;2.4856927627e-009;-5.2191612809e-008;-2.3979218611e-008;-4.9158124682e-008;-6.7941414272e-008;
1.3115234375e+000;-4.5555918149e-008;2.4318249636e-009;-5.2185200161e-008;-2.3990551767e-008;-4.9154817106e-008;-6.7851487984e-008;
1.3154296875e+000;-4.5554397587e-008;2.4641457763e-009;-5.2163851905e-008;-2.3945670335e-008;-4.9119321943e-008;-6.7743826548e-008;
1.3193359375e+000;-4.5587409403e-008;2.4717898839e-009;-5.2173778187e-008;-2.3931386650e-008;-4.9124462720e-008;-6.7706807272e-008;
1.3232421875e+000;-4.5670244475e-008;2.4146364908e-009;-5.2273556150e-008;-2.3986059361e-008;-4.9192298235e-008;-6.7811683380e-008;
1.3271484375e+000;-4.5669551696e-008;2.4195316861e-009;-5.2356547542e-008;-2.4008835808e-008;-4.9235772792e-008;-6.7942956150e-008;
1.3310546875e+000;-4.5681353811e-008;2.4160224932e-009;-5.2487930446e-008;-2.4066055815e-008;-4.9291674742e-008;-6.8152907318e-008;
1.3359375000e+000;-4.5750688571e-008;2.3978952157e-009;-5.2625974689e-008;-2.4133424148e-008;-4.9384301093e-008;-6.8347517868e-008;
1.3398437500e+000;-4.5767968970e-008;2.4145023758e-009;-5.2725955157e-008;-2.4158101297e-008;-4.9437410610e-008;-6.8511091911e-008;
1.3437500000e+000;-4.5713942853e-008;2.4747404126e-009;-5.2786973015e-008;-2.4146455502e-008;-4.9456229334e-008;-6.8637625361e-008;
1.3476562500e+000;-4.5699660944e-008;2.5068822573e-009;-5.2882327850e-008;-2.4178261171e-008;-4.9516845735e-008;-6.8777929130e-008;
1.3515625000e+000;-4.5704577900e-008;2.5253223956e-009;-5.2936687922e-008;-2.4184229730e-008;-4.9552163262e-008;-6.8847441526e-008;
1.3554687500e+000;-4.5682025274e-008;2.5854485219e-009;-5.2921151905e-008;-2.4144846122e-008;-4.9557034032e-008;-6.8867223035e-008;
1.3593750000e+000;-4.5727286846e-008;2.5631414768e-009;-5.2974058917e-008;-2.4194534376e-008;-4.9613742448e-008;-6.8968518008e-008;
1.3632812500e+000;-4.5701760598e-008;2.5852922025e-009;-5.3020595914e-008;-2.4226519457e-008;-4.9655518808e-008;-6.9051154128e-008;
1.3671875000e+000;-4.5694072526e-008;2.5933164505e-009;-5.3035794423e-008;-2.4231660234e-008;-4.9662759238e-008;-6.9087967347e-008;
1.3710937500e+000;-4.5660186743e-008;2.6204289849e-009;-5.3058993643e-008;-2.4225759176e-008;-4.9667608693e-008;-6.9116914858e-008;
1.3759765625e+000;-4.5647134073e-008;2.7198272523e-009;-5.3093170749e-008;-2.4216527450e-008;-4.9706144978e-008;-6.9195209562e-008;
1.3798828125e+000;-4.5633679946e-008;2.7759972099e-009;-5.3122811039e-008;-2.4205485616e-008;-4.9735046304e-008;-6.9258575763e-008;
1.3837890625e+000;-4.5596351583e-008;2.8186220025e-009;-5.3163468294e-008;-2.4198065773e-008;-4.9753239750e-008;-6.9312555695e-008;
1.3876953125e+000;-4.5585309749e-008;2.8513673644e-009;-5.3217313223e-008;-2.4219993122e-008;-4.9763073662e-008;-6.9377023237e-008;
1.3916015625e+000;-4.5562511986e-008;2.8942379604e-009;-5.3283340407e-008;-2.4241382235e-008;-4.9756859966e-008;-6.9433724548e-008;
1.3955078125e+000;-4.5550418548e-008;2.9459823470e-009;-5.3324399119e-008;-2.4204300786e-008;-4.9777156619e-008;-6.9480776688e-008;
1.3994140625e+000;-4.5558799400e-008;2.8913544892e-009;-5.3362846586e-008;-2.4255577102e-008;-4.9829569804e-008;-6.9618018017e-008;
1.4033203125e+000;-4.5578069319e-008;2.9197189111e-009;-5.3378133913e-008;-2.4270327970e-008;-4.9856929252e-008;-6.9703062877e-008;
1.4072265625e+000;-4.5565126783e-008;2.9019493475e-009;-5.3413540257e-008;-2.4251061603e-008;-4.9860595652e-008;-6.9724123364e-008;
1.4111328125e+000;-4.5529162662e-008;2.8828832654e-009;-5.3452609450e-008;-2.4253564490e-008;-4.9860950924e-008;-6.9735477837e-008;
1.4150390625e+000;-4.5516934222e-008;3.0278344276e-009;-5.3493380392e-008;-2.4212392091e-008;-4.9869445462e-008;-6.9775843770e-008;
1.4199218750e+000;-4.5478401489e-008;3.0420947983e-009;-5.3499256580e-008;-2.4215321304e-008;-4.9827580284e-008;-6.9794261037e-008;
1.4238281250e+000;-4.5484302547e-008;2.9985087746e-009;-5.3513339537e-008;-2.4229358075e-008;-4.9816783587e-008;-6.9776426415e-008;
1.4277343750e+000;-4.5504485513e-008;2.9213507169e-009;-5.3589580773e-008;-2.4239572127e-008;-4.9861377249e-008;-6.9820252691e-008;
1.4316406250e+000;-4.5449343844e-008;3.0058178169e-009;-5.3654289900e-008;-2.4303945523e-008;-4.9891685450e-008;-6.9922712953e-008;
1.4355468750e+000;-4.5443911745e-008;3.0958282604e-009;-5.3718483883e-008;-2.4305442992e-008;-4.9944503644e-008;-7.0083714832e-008;
1.4394531250e+000;-4.5432624773e-008;3.0302931275e-009;-5.3780578213e-008;-2.4290825351e-008;-4.9955051651e-008;-7.0108612249e-008;
1.4433593750e+000;-4.5423057315e-008;3.1108711163e-009;-5.3778833831e-008;-2.4318854486e-008;-4.9950696024e-008;-7.0041942024e-008;
1.4472656250e+000;-4.5404082272e-008;3.1153637448e-009;-5.3704781067e-008;-2.4320240044e-008;-4.9953420955e-008;-7.0079849479e-008;
1.4511718750e+000;-4.5433807827e-008;3.0906426307e-009;-5.3662514432e-008;-2.4245405683e-008;-4.9960171111e-008;-7.0091516591e-008;
1.4550781250e+000;-4.5522902781e-008;3.0843172460e-009;-5.3805184308e-008;-2.4267645671e-008;-4.9922530110e-008;-7.0122453621e-008;
1.4599609375e+000;-4.5364249246e-008;3.0551705610e-009;-5.3785026211e-008;-2.4301911594e-008;-4.9866653029e-008;-7.0125850016e-008;
1.4638671875e+000;-4.5333383270e-008;3.1527358502e-009;-5.3487141827e-008;-2.4257923670e-008;-4.9936232926e-008;-7.0081036085e-008;
1.4677734375e+000;-4.5396415516e-008;3.1808544687e-009;-5.3469708661e-008;-2.4215477623e-008;-4.9939362867e-008;-7.0114182904e-008;
1.4716796875e+000;-4.5393530712e-008;3.1519982180e-009;-5.3584148674e-008;-2.4172518209e-008;-4.9949957059e-008;-7.0073213010e-008;
1.4755859375e+000;-4.5389977998e-008;3.1265843248e-009;-5.3556991730e-008;-2.4242298835e-008;-4.9981114358e-008;-7.0046056067e-008;
1.4794921875e+000;-4.5309175079e-008;3.0658993122e-009;-5.3449188187e-008;-2.4238566709e-008;-4.9940592106e-008;-7.0005683028e-008;
1.4833984375e+000;-4.5340200927e-008;3.1317699545e-009;-5.3386692400e-008;-2.4219254158e-008;-4.9897607823e-008;-6.9942494463e-008;
1.4873046875e+000;-4.5278845562e-008;3.1701703485e-009;-5.3310408532e-008;-2.4179490410e-008;-4.9846402561e-008;-6.9947681425e-008;
1.4912109375e+000;-4.5345384336e-008;3.1206610629e-009;-5.3346752793e-008;-2.4197170490e-008;-4.9880195974e-008;-6.9912367451e-008;
1.4951171875e+000;-4.5355132983e-008;3.1349662866e-009;-5.3314966664e-008;-2.4166773471e-008;-4.9844924632e-008;-6.9879668274e-008;
1.4990234375e+000;-4.5480344824e-008;3.0295106423e-009;-5.3276924206e-008;-2.4154278577e-008;-4.9889472109e-008;-6.9881323839e-008;
1.5039062500e+000;-4.5445275987e-008;3.0190276945e-009;-5.3260293953e-008;-2.4114715558e-008;-4.9776708977e-008;-6.9698124605e-008;
1.5078125000e+000;-4.5295809770e-008;3.1428339931e-009;-5.3136197664e-008;-2.4134832799e-008;-4.9673086977e-008;-6.9586235441e-008;
1.5117187500e+000;-4.5331951526e-008;3.1304288051e-009;-5.3087649832e-008;-2.4117397857e-008;-4.9709118599e-008;-6.9565800231e-008;
1.5156250000e+000;-4.5361566947e-008;3.1571614212e-009;-5.3138791145e-008;-2.4127075449e-008;-4.9666201818e-008;-6.9424451965e-008;
1.5195312500e+000;-4.5363155010e-008;3.0698557030e-009;-5.3008236023e-008;-2.4085881734e-008;-4.9671545099e-008;-6.9381286494e-008;
1.5234375000e+000;-4.5358216738e-008;2.9634166232e-009;-5.2940933415e-008;-2.4050834213e-008;-4.9649504064e-008;-6.9257396262e-008;
1.5273437500e+000;-4.5376076230e-008;3.0255098427e-009;-5.2800899653e-008;-2.3982684283e-008;-4.9600867413e-008;-6.9066331321e-008;
1.5312500000e+000;-4.5362462231e-008;3.1204376860e-009;-5.2768960757e-008;-2.3819762163e-008;-4.9534236268e-008;-6.8956850896e-008;
1.5351562500e+000;-4.5310159180e-008;3.0549693886e-009;-5.2734606015e-008;-2.3898730106e-008;-4.9490203935e-008;-6.8819367982e-008;
1.5390625000e+000;-4.5366039814e-008;3.0783045002e-009;-5.2646516480e-008;-2.3893255374e-008;-4.9403656277e-008;-6.8788139629e-008;
1.5439453125e+000;-4.5415703198e-008;3.0475708623e-009;-5.2573739140e-008;-2.3844773267e-008;-4.9414364156e-008;-6.8624750327e-008;
1.5478515625e+000;-4.5366931545e-008;2.9400812895e-009;-5.2474565138e-008;-2.3953626638e-008;-4.9340783903e-008;-6.8551592847e-008;
1.5517578125e+000;-4.5405311511e-008;2.9230717846e-009;-5.2353215096e-008;-2.3783933045e-008;-4.9320711071e-008;-6.8322059121e-008;
1.5556640625e+000;-4.5360540213e-008;3.1169731241e-009;-5.2313787080e-008;-2.3872781085e-008;-4.9246683176e-008;-6.8192242964e-008;
1.5595703125e+000;-4.5337987586e-008;3.0674192075e-009;-5.2262066674e-008;-2.3820678763e-008;-4.9215277187e-008;-6.8124116126e-008;
1.5634765625e+000;-4.5394873638e-008;2.9332865026e-009;-5.2203304790e-008;-2.3776042468e-008;-4.9215771014e-008;-6.8027738109e-008;
1.5673828125e+000;-4.5420801342e-008;2.9994700057e-009;-5.2235087367e-008;-2.3753042200e-008;-4.9165432614e-008;-6.7806986692e-008;
1.5712890625e+000;-4.5537028370e-008;2.8348716707e-009;-5.2235446191e-008;-2.3935387006e-008;-4.9189864626e-008;-6.7877081733e-008;
1.5751953125e+000;-4.5649994007e-008;2.6056321545e-009;-5.2501363257e-008;-2.3649061376e-008;-4.9185281625e-008;-6.7806610105e-008;
1.5791015625e+000;-4.5504886970e-008;2.9293749648e-009;-5.2483549950e-008;-2.3702593666e-008;-4.9178218831e-008;-6.7918549007e-008;
1.5839843750e+000;-4.5444046748e-008;2.9056597128e-009;-5.2476888612e-008;-2.4183961500e-008;-4.9214854414e-008;-6.8261151398e-008;
1.5878906250e+000;-4.5379159985e-008;2.9107782851e-009;-5.2396334382e-008;-2.3949313643e-008;-4.9383139356e-008;-6.8348100513e-008;
1.5917968750e+000;-4.5510521574e-008;2.6832822630e-009;-5.2585921395e-008;-2.3955191608e-008;-4.9450441963e-008;-6.8463798186e-008;
1.5957031250e+000;-4.5574580554e-008;2.7322994978e-009;-5.2746003121e-008;-2.4106848073e-008;-4.9485734621e-008;-6.8493228866e-008;
1.5996093750e+000;-4.5456161502e-008;2.6050734903e-009;-5.2945715368e-008;-2.3965517570e-008;-4.9486963860e-008;-6.8335786807e-008;
1.6035156250e+000;-4.5325201370e-008;2.9810298674e-009;-5.2768200476e-008;-2.4053024461e-008;-4.9549814918e-008;-6.8732219916e-008;
1.6074218750e+000;-4.5409020544e-008;3.1612295004e-009;-5.2734179690e-008;-2.4075555771e-008;-4.9581799999e-008;-6.8958684096e-008;
1.6113281250e+000;-4.5483364630e-008;2.8071778235e-009;-5.2987356725e-008;-2.4235280449e-008;-4.9632273402e-008;-6.9233273337e-008;
1.6152343750e+000;-4.5553459671e-008;2.3141208949e-009;-5.3258439436e-008;-2.4247306385e-008;-4.9587679740e-008;-6.8871287340e-008;
1.6191406250e+000;-4.5359133338e-008;3.1731430816e-009;-5.3292012581e-008;-2.4256738840e-008;-4.9596554419e-008;-6.8874349779e-008;
1.6230468750e+000;-4.5310361685e-008;3.2165947683e-009;-5.2768534431e-008;-2.4216618044e-008;-4.9626706300e-008;-6.9435401429e-008;
1.6279296875e+000;-4.5447151820e-008;3.2249320991e-009;-5.2736012890e-008;-2.4070391902e-008;-4.9775994881e-008;-6.9500380562e-008;
1.6318359375e+000;-4.5311679742e-008;3.1936842060e-009;-5.2908433190e-008;-2.4277525768e-008;-4.9724025786e-008;-6.9466139507e-008;
1.6357421875e+000;-4.5243236713e-008;3.0478390922e-009;-5.2940194450e-008;-2.4242009289e-008;-4.9822173054e-008;-6.9486077336e-008;
1.6396484375e+000;-4.5583835373e-008;2.4862516490e-009;-5.3394160204e-008;-2.4205732529e-008;-4.9886835995e-008;-6.9193376362e-008;
1.6435546875e+000;-4.5450931907e-008;2.7782771639e-009;-5.3594117588e-008;-2.4169901636e-008;-4.9633278820e-008;-6.9239263212e-008;
1.6474609375e+000;-4.5419682237e-008;3.1009692592e-009;-5.3303008229e-008;-2.4332109660e-008;-4.9855497508e-008;-6.9923920876e-008;
1.6513671875e+000;-4.5772928559e-008;2.6059003844e-009;-5.4123944437e-008;-2.4531777498e-008;-4.9816808456e-008;-6.9897033939e-008;
1.6552734375e+000;-4.5535912818e-008;2.6784541252e-009;-5.4121908732e-008;-2.4328018711e-008;-4.9672145508e-008;-6.9359117560e-008;
1.6591796875e+000;-4.5403837134e-008;3.0944424800e-009;-5.3476234996e-008;-2.4168516077e-008;-4.9748432929e-008;-6.9820458748e-008;
1.6630859375e+000;-4.5222808609e-008;3.2879639011e-009;-5.3412421153e-008;-2.4080629046e-008;-4.9895330534e-008;-7.0156559673e-008;
1.6679687500e+000;-4.5152624750e-008;3.3008384914e-009;-5.2969074460e-008;-2.4244176444e-008;-4.9995353635e-008;-7.0230164795e-008;
1.6718750000e+000;-4.5324039633e-008;3.2411371365e-009;-5.3133380362e-008;-2.4441654034e-008;-5.0084111081e-008;-7.0077057046e-008;
1.6757812500e+000;-4.5328800269e-008;3.2697919927e-009;-5.3326502325e-008;-2.4392637243e-008;-4.9881023756e-008;-7.0187560652e-008;
1.6796875000e+000;-4.5180161834e-008;3.2623712620e-009;-5.3345253548e-008;-2.4291361811e-008;-4.9986681461e-008;-7.0248404427e-008;
1.6835937500e+000;-4.4966768087e-008;3.4146536709e-009;-5.2926584004e-008;-2.4252804209e-008;-5.0186752532e-008;-7.0206425562e-008;
1.6875000000e+000;-4.5014200367e-008;3.4229685753e-009;-5.2898041503e-008;-2.4215365713e-008;-5.0165965604e-008;-7.0135506292e-008;
1.6914062500e+000;-4.5023966777e-008;3.4162181972e-009;-5.2937380701e-008;-2.4207251315e-008;-5.0131856000e-008;-7.0131193297e-008;
1.6953125000e+000;-4.5066055776e-008;3.3842553204e-009;-5.3036263381e-008;-2.4247551522e-008;-5.0140663177e-008;-7.0196236379e-008;
1.6992187500e+000;-4.5083243805e-008;3.3727887150e-009;-5.3112191978e-008;-2.4274195098e-008;-5.0122689998e-008;-7.0233674876e-008;
1.7031250000e+000;-4.5106624214e-008;3.3673797084e-009;-5.3134947109e-008;-2.4261030518e-008;-5.0092182846e-008;-7.0234925431e-008;
1.7070312500e+000;-4.5144354033e-008;3.3411386990e-009;-5.3176943737e-008;-2.4275358612e-008;-5.0100741333e-008;-7.0258103335e-008;
1.7119140625e+000;-4.5140353677e-008;3.3433291691e-009;-5.3205489792e-008;-2.4287293954e-008;-5.0109168370e-008;-7.0276207964e-008;
1.7158203125e+000;-4.5137873883e-008;3.3391047705e-009;-5.3212932727e-008;-2.4290244482e-008;-5.0109527194e-008;-7.0266466423e-008;
1.7197265625e+000;-4.5127926285e-008;3.3195246552e-009;-5.3177817705e-008;-2.4281124666e-008;-5.0090168457e-008;-7.0220664838e-008;
1.7236328125e+000;-4.5120348346e-008;3.3160600932e-009;-5.3151151036e-008;-2.4271423982e-008;-5.0071797375e-008;-7.0197017976e-008;
1.7275390625e+000;-4.5107093172e-008;3.3245983744e-009;-5.3119144638e-008;-2.4254681819e-008;-5.0051724543e-008;-7.0157298637e-008;
1.7314453125e+000;-4.5113374370e-008;3.3397304922e-009;-5.3085681628e-008;-2.4244759089e-008;-5.0053177603e-008;-7.0098266747e-008;
1.7353515625e+000;-4.5119833203e-008;3.3252018916e-009;-5.3026898428e-008;-2.4235102813e-008;-5.0047542999e-008;-7.0031504151e-008;
1.7392578125e+000;-4.5126988368e-008;3.3048395132e-009;-5.2975423159e-008;-2.4210269345e-008;-5.0032078036e-008;-6.9951816783e-008;
1.7431640625e+000;-4.5102602542e-008;3.3155012069e-009;-5.2931703465e-008;-2.4182821079e-008;-5.0003666985e-008;-6.9881814113e-008;
1.7470703125e+000;-4.5084050271e-008;3.3344556005e-009;-5.2895110514e-008;-2.4170550006e-008;-4.9953936099e-008;-6.9831116889e-008;
1.7519531250e+000;-4.5059731946e-008;3.3454525816e-009;-5.2830159802e-008;-2.4137515098e-008;-4.9925080958e-008;-6.9729303220e-008;
1.7558593750e+000;-4.5081055333e-008;3.3406246658e-009;-5.2770612768e-008;-2.4103540497e-008;-4.9904137711e-008;-6.9619467524e-008;
1.7597656250e+000;-4.5133603521e-008;3.3105167496e-009;-5.2750429802e-008;-2.4115340835e-008;-4.9878654096e-008;-6.9556215010e-008;
1.7636718750e+000;-4.5155328365e-008;3.2920319804e-009;-5.2719023813e-008;-2.4111788122e-008;-4.9862762808e-008;-6.9498973687e-008;
1.7675781250e+000;-4.5144869176e-008;3.2648075354e-009;-5.2656641714e-008;-2.4088006256e-008;-4.9828475568e-008;-6.9401878022e-008;
1.7714843750e+000;-4.5153900174e-008;3.2493625568e-009;-5.2591197175e-008;-2.4053136372e-008;-4.9792557633e-008;-6.9275678527e-008;
1.7753906250e+000;-4.5175244878e-008;3.2360631952e-009;-5.2525638949e-008;-2.4014044087e-008;-4.9765869647e-008;-6.9157998439e-008;
1.7792968750e+000;-4.5159218587e-008;3.2376277215e-009;-5.2473872358e-008;-2.3986931552e-008;-4.9734822483e-008;-6.9049256979e-008;
1.7832031250e+000;-4.5166839158e-008;3.2189864108e-009;-5.2438444698e-008;-2.3985030850e-008;-4.9695213278e-008;-6.8946953036e-008;
1.7871093750e+000;-4.5174239460e-008;3.2163265384e-009;-5.2380464410e-008;-2.3936795657e-008;-4.9619465869e-008;-6.8785055873e-008;
1.7919921875e+000;-4.5195875487e-008;3.1950924129e-009;-5.2361688319e-008;-2.3916790326e-008;-4.9592777884e-008;-6.8671127451e-008;
1.7958984375e+000;-4.5202781962e-008;3.1882527729e-009;-5.2330104694e-008;-2.3896518542e-008;-4.9572189909e-008;-6.8562926003e-008;
1.7998046875e+000;-4.5236330237e-008;3.1440186010e-009;-5.2322437938e-008;-2.3911583824e-008;-4.9546621028e-008;-6.8478790638e-008;
1.8037109375e+000;-4.5271871585e-008;3.1140225953e-009;-5.2292463693e-008;-2.3890974532e-008;-4.9497980825e-008;-6.8338380288e-008;
1.8076171875e+000;-4.5253699454e-008;3.1237457065e-009;-5.2248857685e-008;-2.3832168239e-008;-4.9454708773e-008;-6.8170230350e-008;
1.8115234375e+000;-4.5206448362e-008;3.1323958982e-009;-5.2210523904e-008;-2.3792850357e-008;-4.9382624212e-008;-6.8037124379e-008;
1.8154296875e+000;-4.5245606373e-008;3.1017068913e-009;-5.2244274684e-008;-2.3813749195e-008;-4.9363091392e-008;-6.7989958552e-008;
1.8193359375e+000;-4.5305220908e-008;3.0875135781e-009;-5.2251717619e-008;-2.3805792893e-008;-4.9358842347e-008;-6.7944185389e-008;
1.8232421875e+000;-4.5298289564e-008;3.0733200429e-009;-5.2276863727e-008;-2.3810933669e-008;-4.9354909493e-008;-6.7954310623e-008;
1.8271484375e+000;-4.5282600780e-008;3.0847417953e-009;-5.2315218824e-008;-2.3814264338e-008;-4.9366263966e-008;-6.8008176868e-008;
1.8310546875e+000;-4.5339326959e-008;3.0369762261e-009;-5.2425658481e-008;-2.3880089017e-008;-4.9424667026e-008;-6.8143386045e-008;
1.8359375000e+000;-4.5337561261e-008;3.0329976308e-009;-5.2485695790e-008;-2.3899289658e-008;-4.9442885341e-008;-6.8217033800e-008;
1.8398437500e+000;-4.5269345605e-008;3.0692073327e-009;-5.2531827777e-008;-2.3901190360e-008;-4.9457995033e-008;-6.8287349109e-008;
1.8437500000e+000;-4.5284341610e-008;3.0696321041e-009;-5.2595108713e-008;-2.3924412673e-008;-4.9482984821e-008;-6.8422508548e-008;
1.8476562500e+000;-4.5320977193e-008;3.0636642112e-009;-5.2682235463e-008;-2.3972960506e-008;-4.9541903024e-008;-6.8591823776e-008;
1.8515625000e+000;-4.5371336910e-008;3.0239897253e-009;-5.2761315317e-008;-2.4016458156e-008;-4.9602633112e-008;-6.8726990321e-008;
1.8554687500e+000;-4.5340311061e-008;3.0306281928e-009;-5.2788987404e-008;-2.4007539068e-008;-4.9608601671e-008;-6.8790576790e-008;
1.8593750000e+000;-4.5309487717e-008;3.0542763874e-009;-5.2830852582e-008;-2.4011495015e-008;-4.9613138486e-008;-6.8867933578e-008;
1.8632812500e+000;-4.5274887839e-008;3.1019302682e-009;-5.2876536927e-008;-2.4013820266e-008;-4.9616289743e-008;-6.8929651320e-008;
1.8671875000e+000;-4.5290242667e-008;3.0738342982e-009;-5.2944464812e-008;-2.4055774261e-008;-4.9639826472e-008;-6.9023663229e-008;
1.8710937500e+000;-4.5299767493e-008;3.0515272531e-009;-5.3002512601e-008;-2.4084920724e-008;-4.9677467473e-008;-6.9096351751e-008;
1.8759765625e+000;-4.5302670060e-008;3.0323716871e-009;-5.3048982096e-008;-2.4112280173e-008;-4.9706635252e-008;-6.9184572737e-008;
1.8798828125e+000;-4.5251283609e-008;3.0840712206e-009;-5.3077346962e-008;-2.4091470152e-008;-4.9710145333e-008;-6.9220156718e-008;
1.8837890625e+000;-4.5187359632e-008;3.1561557812e-009;-5.3097352293e-008;-2.4056555858e-008;-4.9699192317e-008;-6.9237458433e-008;
1.8876953125e+000;-4.5220328815e-008;3.1417835000e-009;-5.3150884582e-008;-2.4073857574e-008;-4.9739202979e-008;-6.9292930505e-008;
1.8916015625e+000;-4.5302158469e-008;3.0334670331e-009;-5.3288616186e-008;-2.4189549919e-008;-4.9841752059e-008;-6.9462025465e-008;
1.8955078125e+000;-4.5269704430e-008;3.0534494933e-009;-5.3326790095e-008;-2.4194690695e-008;-4.9834017801e-008;-6.9517369639e-008;
1.8994140625e+000;-4.5270240889e-008;3.0675533225e-009;-5.3357009477e-008;-2.4206693539e-008;-4.9850513051e-008;-6.9571903794e-008;
1.9033203125e+000;-4.5245720059e-008;3.0645581628e-009;-5.3356252749e-008;-2.4218985928e-008;-4.9857195705e-008;-6.9602997144e-008;
1.9072265625e+000;-4.5320977193e-008;3.0001181539e-009;-5.3423953261e-008;-2.4288567602e-008;-4.9914039124e-008;-6.9692831062e-008;
1.9111328125e+000;-4.5350279976e-008;2.9989111194e-009;-5.3458755644e-008;-2.4297239776e-008;-4.9939831825e-008;-6.9751123988e-008;
1.9150390625e+000;-4.5335305288e-008;3.0040296917e-009;-5.3479162432e-008;-2.4313914437e-008;-4.9954831383e-008;-6.9808365311e-008;
1.9199218750e+000;-4.5295049489e-008;3.0794220507e-009;-5.3412442469e-008;-2.4249876773e-008;-4.9930196866e-008;-6.9751301623e-008;
1.9238281250e+000;-4.5292569695e-008;3.1002762579e-009;-5.3412623657e-008;-2.4239550811e-008;-4.9969202109e-008;-6.9776312728e-008;
1.9277343750e+000;-4.5276298266e-008;3.0931013306e-009;-5.3431598701e-008;-2.4251173514e-008;-4.9975817262e-008;-6.9852262641e-008;
1.9316406250e+000;-4.5275513116e-008;3.0739906176e-009;-5.3455359250e-008;-2.4285460754e-008;-4.9976780048e-008;-6.9919785517e-008;
1.9355468750e+000;-4.5305398544e-008;3.0321929412e-009;-5.3481265638e-008;-2.4334836368e-008;-4.9995307450e-008;-6.9984295692e-008;
1.9394531250e+000;-4.5251105973e-008;3.0595290745e-009;-5.3452787085e-008;-2.4306828550e-008;-4.9953889913e-008;-6.9969388505e-008;
1.9433593750e+000;-4.5282575911e-008;3.0531588369e-009;-5.3447067216e-008;-2.4300234713e-008;-4.9957623816e-008;-6.9971378025e-008;
1.9472656250e+000;-4.5310361685e-008;3.0419828878e-009;-5.3449703330e-008;-2.4319636083e-008;-4.9983484018e-008;-7.0007828867e-008;
1.9511718750e+000;-4.5300772911e-008;3.0584115240e-009;-5.3413025114e-008;-2.4307455604e-008;-4.9970385163e-008;-7.0015516940e-008;
1.9550781250e+000;-4.5311924879e-008;3.0513707117e-009;-5.3402182232e-008;-2.4309198210e-008;-4.9978321925e-008;-7.0021755505e-008;
1.9599609375e+000;-4.5286554951e-008;3.0572715470e-009;-5.3379228149e-008;-2.4292479139e-008;-4.9958405413e-008;-7.0023681076e-008;
1.9638671875e+000;-4.5294267892e-008;3.0144233776e-009;-5.3381306486e-008;-2.4325894188e-008;-4.9969873572e-008;-7.0081483727e-008;
1.9677734375e+000;-4.5324711095e-008;3.0141327212e-009;-5.3343821804e-008;-2.4305466084e-008;-4.9975504623e-008;-7.0042993627e-008;
1.9716796875e+000;-4.5290423856e-008;3.0595961320e-009;-5.3260517774e-008;-2.4253139941e-008;-4.9933305490e-008;-6.9948086434e-008;
1.9755859375e+000;-4.5328800269e-008;3.0006770402e-009;-5.3249387122e-008;-2.4291338718e-008;-4.9945956704e-008;-6.9959014581e-008;
1.9794921875e+000;-4.5360653900e-008;2.9584992234e-009;-5.3251064003e-008;-2.4326006098e-008;-4.9965201754e-008;-6.9969836147e-008;
1.9833984375e+000;-4.5308237162e-008;3.0197653267e-009;-5.3190916560e-008;-2.4272630128e-008;-4.9928075896e-008;-6.9860782048e-008;
1.9873046875e+000;-4.5306695284e-008;3.0139539753e-009;-5.3118384358e-008;-2.4263197673e-008;-4.9852413753e-008;-6.9766095123e-008;
1.9912109375e+000;-4.5303366392e-008;3.0188043176e-009;-5.3060269067e-008;-2.4230230267e-008;-4.9824162573e-008;-6.9690372584e-008;
1.9951171875e+000;-4.5355601941e-008;2.9673727919e-009;-5.3049404869e-008;-2.4238655527e-008;-4.9851564654e-008;-6.9638893763e-008;
1.9990234375e+000;-4.5336825849e-008;2.9651601174e-009;-5.2996814048e-008;-2.4233290929e-008;-4.9805652935e-008;-6.9552704929e-008;
2.0039062500e+000;-4.5336399523e-008;2.9559288350e-009;-5.2933156525e-008;-2.4136731724e-008;-4.9755584541e-008;-6.9429411553e-008;
2.0078125000e+000;-4.5362217094e-008;2.9769393617e-009;-5.2891579116e-008;-2.4082797978e-008;-4.9744073749e-008;-6.9314125994e-008;
2.0117187500e+000;-4.5402963167e-008;2.8615596559e-009;-5.2871911294e-008;-2.4151663780e-008;-4.9732875596e-008;-6.9217783505e-008;
2.0156250000e+000;-4.5418655503e-008;2.7945938896e-009;-5.2843613929e-008;-2.4169768409e-008;-4.9703306360e-008;-6.9142998882e-008;
2.0195312500e+000;-4.5424243922e-008;2.9372650978e-009;-5.2769717485e-008;-2.4003158572e-008;-4.9644565792e-008;-6.9016351745e-008;
2.0234375000e+000;-4.5361545631e-008;2.9626565645e-009;-5.2673314599e-008;-2.3980023300e-008;-4.9566825311e-008;-6.8773722717e-008;
2.0273437500e+000;-4.5398650173e-008;2.8290603193e-009;-5.2646537796e-008;-2.3998778076e-008;-4.9535689328e-008;-6.8662075137e-008;
2.0312500000e+000;-4.5473505850e-008;2.8627220594e-009;-5.2663637007e-008;-2.3913839797e-008;-4.9523663392e-008;-6.8605373826e-008;
2.0351562500e+000;-4.5465952780e-008;2.8056803547e-009;-5.2636838888e-008;-2.3897591461e-008;-4.9446104100e-008;-6.8381517337e-008;
2.0390625000e+000;-4.5496641121e-008;2.8826150356e-009;-5.2587978416e-008;-2.3903245605e-008;-4.9375582734e-008;-6.8213566351e-008;
2.0439453125e+000;-4.5490516243e-008;2.8226005977e-009;-5.2569312459e-008;-2.3926894244e-008;-4.9367539390e-008;-6.8193230618e-008;
2.0478515625e+000;-4.5431125528e-008;2.8307589606e-009;-5.2470628731e-008;-2.3862924081e-008;-4.9330211027e-008;-6.8086229987e-008;
2.0517578125e+000;-4.5429629836e-008;2.9038715876e-009;-5.2476888612e-008;-2.3813056416e-008;-4.9339373476e-008;-6.8096312589e-008;
2.0556640625e+000;-4.5537408511e-008;2.8180409117e-009;-5.2618396751e-008;-2.3833642615e-008;-4.9352294695e-008;-6.8084574423e-008;
2.0595703125e+000;-4.5453635522e-008;2.8774072014e-009;-5.2754227653e-008;-2.3940462057e-008;-4.9367983479e-008;-6.8155024735e-008;
2.0634765625e+000;-4.5369993984e-008;2.9591251671e-009;-5.2731810030e-008;-2.3879843880e-008;-4.9363180210e-008;-6.8333996239e-008;
2.0673828125e+000;-4.5365815993e-008;2.9143321090e-009;-5.2806644391e-008;-2.3960176065e-008;-4.9378893863e-008;-6.8437238099e-008;
2.0712890625e+000;-4.5421582939e-008;2.9441939997e-009;-5.2833510011e-008;-2.3970748941e-008;-4.9420712855e-008;-6.8504405704e-008;
2.0751953125e+000;-4.5449343844e-008;2.9215965203e-009;-5.2914646886e-008;-2.3972335228e-008;-4.9436469141e-008;-6.8632928674e-008;
2.0791015625e+000;-4.5471740151e-008;2.9063078610e-009;-5.3132197309e-008;-2.4067485782e-008;-4.9495142207e-008;-6.8798200914e-008;
2.0839843750e+000;-4.5339440646e-008;3.0375797433e-009;-5.3022628066e-008;-2.3973184327e-008;-4.9507928424e-008;-6.8894493666e-008;
2.0878906250e+000;-4.5366462587e-008;2.9406848068e-009;-5.3020727364e-008;-2.4018268263e-008;-4.9567027816e-008;-6.8969121969e-008;
2.0917968750e+000;-4.5354973111e-008;2.9780122812e-009;-5.3017288337e-008;-2.3951280070e-008;-4.9531262647e-008;-6.8901151451e-008;
2.0957031250e+000;-4.5377259283e-008;2.9773863375e-009;-5.3000746902e-008;-2.4006533650e-008;-4.9577664640e-008;-6.9006631520e-008;
2.0996093750e+000;-4.5454729758e-008;2.8246123218e-009;-5.3055753568e-008;-2.4158637757e-008;-4.9517584699e-008;-6.9092664035e-008;
2.1035156250e+000;-4.5500083701e-008;2.8403031038e-009;-5.3243351061e-008;-2.4204993565e-008;-4.9501938548e-008;-6.9081998788e-008;
2.1074218750e+000;-4.5307185559e-008;3.0618760860e-009;-5.3057476634e-008;-2.4124551246e-008;-4.9470020969e-008;-6.9245146506e-008;
2.1113281250e+000;-4.5264652471e-008;3.0507001370e-009;-5.2867061839e-008;-2.4154568123e-008;-4.9561862170e-008;-6.9124823199e-008;
2.1152343750e+000;-4.5285169392e-008;3.1231646158e-009;-5.2897593861e-008;-2.4035948343e-008;-4.9615998421e-008;-6.9338483399e-008;
2.1191406250e+000;-4.5397467119e-008;3.0577409493e-009;-5.3004100664e-008;-2.4145874633e-008;-4.9639826472e-008;-6.9410589276e-008;
2.1230468750e+000;-4.5298669704e-008;3.0100870685e-009;-5.3050658977e-008;-2.4163755441e-008;-4.9626773801e-008;-6.9425432514e-008;
2.1279296875e+000;-4.5278220284e-008;3.0673299456e-009;-5.2999450162e-008;-2.4071152183e-008;-4.9647649547e-008;-6.9464057617e-008;
2.1318359375e+000;-4.5286132178e-008;3.0707496546e-009;-5.3092144014e-008;-2.4160179635e-008;-4.9704379279e-008;-6.9569331629e-008;
2.1357421875e+000;-4.5305153407e-008;2.9547664315e-009;-5.3188141891e-008;-2.4188521408e-008;-4.9754646625e-008;-6.9607217767e-008;
2.1396484375e+000;-4.5342211763e-008;2.8913769157e-009;-5.3329340943e-008;-2.4305174762e-008;-4.9752458153e-008;-6.9602350550e-008;
2.1435546875e+000;-4.5274084925e-008;3.0112492500e-009;-5.3321581817e-008;-2.4104188867e-008;-4.9678202885e-008;-6.9657581037e-008;
2.1474609375e+000;-4.5244043179e-008;3.1783062848e-009;-5.3234188613e-008;-2.4221959549e-008;-4.9753932529e-008;-6.9838939964e-008;
2.1513671875e+000;-4.5297309015e-008;3.1003211109e-009;-5.3282132484e-008;-2.4285325750e-008;-4.9852122430e-008;-6.9787489565e-008;
2.1552734375e+000;-4.5286533634e-008;3.1359272956e-009;-5.3319460847e-008;-2.4123231412e-008;-4.9847383110e-008;-6.9667123626e-008;
2.1591796875e+000;-4.5324465958e-008;3.0264037942e-009;-5.3390873944e-008;-2.4287718503e-008;-4.9828340565e-008;-6.9929512847e-008;
2.1630859375e+000;-4.5374910940e-008;2.9537159385e-009;-5.3477688056e-008;-2.4297888146e-008;-4.9844725680e-008;-6.9861293639e-008;
2.1679687500e+000;-4.5302112284e-008;3.0616302826e-009;-5.3391030264e-008;-2.4224597439e-008;-4.9887862730e-008;-6.9882865716e-008;
2.1718750000e+000;-4.5211631772e-008;3.1427223046e-009;-5.3219235241e-008;-2.4182284619e-008;-4.9880242159e-008;-6.9851544993e-008;
2.1757812500e+000;-4.5196500764e-008;3.0921403216e-009;-5.3184432858e-008;-2.4119588105e-008;-4.9915087175e-008;-6.9925889079e-008;
2.1796875000e+000;-4.5336758348e-008;3.0340927548e-009;-5.3320196258e-008;-2.4178373081e-008;-4.9953957415e-008;-6.9611644449e-008;
2.1835937500e+000;-4.5509089830e-008;2.9448199435e-009;-5.3537611677e-008;-2.4256694431e-008;-4.9899753662e-008;-6.9752395859e-008;
2.1875000000e+000;-4.5217042555e-008;2.9472786434e-009;-5.3408353295e-008;-2.4245897734e-008;-4.9862585172e-008;-6.9899762423e-008;
2.1914062500e+000;-4.5170907015e-008;3.0729847555e-009;-5.3134812106e-008;-2.4346055838e-008;-4.9971973226e-008;-7.0109798855e-008;
2.1953125000e+000;-4.5272429361e-008;2.9467646101e-009;-5.3230099439e-008;-2.4342300620e-008;-5.0001030871e-008;-6.9995380159e-008;
2.1992187500e+000;-4.5303544027e-008;2.8349387282e-009;-5.3395321942e-008;-2.4367670548e-008;-4.9952394221e-008;-6.9820167425e-008;
2.2031250000e+000;-4.5425316841e-008;2.5819171245e-009;-5.3408712120e-008;-2.4215454530e-008;-4.9866898166e-008;-6.9571747474e-008;
2.2070312500e+000;-4.5410004645e-008;2.7654247781e-009;-5.3576126646e-008;-2.4263153264e-008;-4.9847919570e-008;-6.9694998217e-008;
2.2119140625e+000;-4.5308258478e-008;2.8538482688e-009;-5.3365148744e-008;-2.4120639708e-008;-4.9903487565e-008;-6.9855730089e-008;
2.2158203125e+000;-4.5268631510e-008;3.0131714901e-009;-5.3236981046e-008;-2.4328800308e-008;-4.9848903672e-008;-6.9763999022e-008;
2.2197265625e+000;-4.5247954716e-008;3.1883644613e-009;-5.3185505777e-008;-2.4356383577e-008;-4.9813632330e-008;-6.9886951337e-008;
2.2236328125e+000;-4.5193193188e-008;3.1716678173e-009;-5.3141270939e-008;-2.4154166667e-008;-4.9833861482e-008;-6.9751543208e-008;
2.2275390625e+000;-4.5187494635e-008;3.1565803305e-009;-5.2862031197e-008;-2.4268562271e-008;-4.9898570609e-008;-6.9689541249e-008;
2.2314453125e+000;-4.5195161391e-008;3.2185170085e-009;-5.2842093368e-008;-2.4255017550e-008;-4.9877225905e-008;-6.9740657693e-008;
2.2353515625e+000;-4.5243037761e-008;3.1118321253e-009;-5.2917911830e-008;-2.3972647867e-008;-4.9848434713e-008;-6.9688383064e-008;
2.2392578125e+000;-4.5319591635e-008;3.0753317670e-009;-5.3018382573e-008;-2.4103249174e-008;-4.9886658360e-008;-6.9494682009e-008;
2.2431640625e+000;-4.5206203225e-008;3.1836706604e-009;-5.2910312576e-008;-2.4052107861e-008;-4.9763855259e-008;-6.9377179557e-008;
2.2470703125e+000;-4.5198490284e-008;3.2080786916e-009;-5.2690861452e-008;-2.4038651958e-008;-4.9704890870e-008;-6.9450713625e-008;
2.2519531250e+000;-4.5463693255e-008;2.8401689889e-009;-5.2660976024e-008;-2.4151372457e-008;-4.9828944526e-008;-6.9360304167e-008;
2.2558593750e+000;-4.5520714309e-008;2.4166257884e-009;-5.3062237271e-008;-2.4256090470e-008;-4.9654197198e-008;-6.9038478046e-008;
2.2597656250e+000;-4.5316461694e-008;3.1953606427e-009;-5.2973121001e-008;-2.3967395180e-008;-4.9491948317e-008;-6.8949901788e-008;
2.2636718750e+000;-4.5198781606e-008;3.3198150895e-009;-5.2424319108e-008;-2.3948462768e-008;-4.9527599799e-008;-6.8984974178e-008;
2.2675781250e+000;-4.5211567823e-008;3.2233227198e-009;-5.2450111809e-008;-2.3971329810e-008;-4.9564345517e-008;-6.8825400490e-008;
2.2714843750e+000;-4.5186979492e-008;3.2804761130e-009;-5.2168591225e-008;-2.3876044253e-008;-4.9533209534e-008;-6.8568532186e-008;
2.2753906250e+000;-4.5226876466e-008;3.2219145130e-009;-5.2109829340e-008;-2.3836168594e-008;-4.9590294537e-008;-6.8412632004e-008;
2.2792968750e+000;-4.5266038029e-008;3.1544569179e-009;-5.2160768149e-008;-2.3855278641e-008;-4.9521386103e-008;-6.8330670899e-008;
2.2832031250e+000;-4.5293710116e-008;3.1119662403e-009;-5.2186429400e-008;-2.3871685073e-008;-4.9496307497e-008;-6.8276129639e-008;
2.2871093750e+000;-4.5323503173e-008;3.0842053356e-009;-5.2215195723e-008;-2.3878726552e-008;-4.9484391695e-008;-6.8218753313e-008;
2.2919921875e+000;-4.5330388332e-008;3.0737672407e-009;-5.2259338190e-008;-2.3886638445e-008;-4.9479027098e-008;-6.8206503556e-008;
2.2958984375e+000;-4.5323929498e-008;3.0751305946e-009;-5.2316583066e-008;-2.3901346680e-008;-4.9483922737e-008;-6.8245931573e-008;
2.2998046875e+000;-4.5332377852e-008;3.0799363060e-009;-5.2405990658e-008;-2.3936683746e-008;-4.9523531942e-008;-6.8340995085e-008;
2.3037109375e+000;-4.5312393837e-008;3.0976388121e-009;-5.2477915347e-008;-2.3952733130e-008;-4.9551424297e-008;-6.8434310663e-008;
2.3076171875e+000;-4.5307253060e-008;3.1040761073e-009;-5.2558249308e-008;-2.3968020457e-008;-4.9599883312e-008;-6.8557717725e-008;
2.3115234375e+000;-4.5316955521e-008;3.0954707686e-009;-5.2653220450e-008;-2.3998307341e-008;-4.9662244095e-008;-6.8701886846e-008;
2.3154296875e+000;-4.5283112371e-008;3.1316804705e-009;-5.2725773969e-008;-2.4009372268e-008;-4.9694879323e-008;-6.8812930465e-008;
2.3193359375e+000;-4.5286288497e-008;3.1226727870e-009;-5.2792181293e-008;-2.4039211510e-008;-4.9730822127e-008;-6.8904306261e-008;
2.3232421875e+000;-4.5243215396e-008;3.1557085833e-009;-5.2803514450e-008;-2.4019341183e-008;-4.9724114604e-008;-6.8921849561e-008;
2.3271484375e+000;-4.5268897964e-008;3.1428564196e-009;-5.2854254307e-008;-2.4040687663e-008;-4.9758245524e-008;-6.8984370216e-008;
2.3310546875e+000;-4.5323705677e-008;3.1029139258e-009;-5.2929422623e-008;-2.4106824981e-008;-4.9809319336e-008;-6.9076072862e-008;
2.3359375000e+000;-4.5300012630e-008;3.1210412033e-009;-5.2931991235e-008;-2.4096207696e-008;-4.9800313207e-008;-6.9067937147e-008;
2.3398437500e+000;-4.5302382290e-008;3.1189624217e-009;-5.2945626550e-008;-2.4091514561e-008;-4.9806459401e-008;-6.9062778607e-008;
2.3437500000e+000;-4.5339550780e-008;3.0750859636e-009;-5.2999496347e-008;-2.4134989118e-008;-4.9845283456e-008;-6.9122123136e-008;
2.3476562500e+000;-4.5310272867e-008;3.1040761073e-009;-5.3015050128e-008;-2.4126853404e-008;-4.9842466154e-008;-6.9138323511e-008;
2.3515625000e+000;-4.5355310618e-008;3.0520637129e-009;-5.3071065764e-008;-2.4184698688e-008;-4.9873268182e-008;-6.9205334796e-008;
2.3554687500e+000;-4.5324330955e-008;3.0567350873e-009;-5.3058837324e-008;-2.4186398662e-008;-4.9843205119e-008;-6.9195209562e-008;
2.3593750000e+000;-4.5303991669e-008;3.0857254529e-009;-5.3050055016e-008;-2.4163039569e-008;-4.9846377692e-008;-6.9193532681e-008;
2.3632812500e+000;-4.5292612327e-008;3.1106699439e-009;-5.3052804816e-008;-2.4144577893e-008;-4.9845038319e-008;-6.9217989562e-008;
2.3671875000e+000;-4.5258079950e-008;3.1419846724e-009;-5.3036465886e-008;-2.4124952702e-008;-4.9818147829e-008;-6.9212646281e-008;
2.3710937500e+000;-4.5266574489e-008;3.1340499085e-009;-5.3020169588e-008;-2.4116928898e-008;-4.9820048531e-008;-6.9199231234e-008;
2.3759765625e+000;-4.5270596161e-008;3.1338709405e-009;-5.3022070290e-008;-2.4105551333e-008;-4.9836856419e-008;-6.9200616792e-008;
2.3798828125e+000;-4.5253809589e-008;3.1377154208e-009;-5.3023434532e-008;-2.4098019580e-008;-4.9837549199e-008;-6.9212447329e-008;
2.3837890625e+000;-4.5246590474e-008;3.1266513822e-009;-5.3037044978e-008;-2.4124707565e-008;-4.9839673721e-008;-6.9244563861e-008;
2.3876953125e+000;-4.5207119825e-008;3.1770097664e-009;-5.2985143384e-008;-2.4068826932e-008;-4.9799595558e-008;-6.9175719375e-008;
2.3916015625e+000;-4.5237090518e-008;3.1573850201e-009;-5.3001262046e-008;-2.4079467309e-008;-4.9818840608e-008;-6.9187272800e-008;
2.3955078125e+000;-4.5293283790e-008;3.1007234558e-009;-5.3041940618e-008;-2.4127075449e-008;-4.9853664308e-008;-6.9243270673e-008;
2.3994140625e+000;-4.5309736407e-008;3.0803832818e-009;-5.3065654981e-008;-2.4161833423e-008;-4.9872575403e-008;-6.9283878190e-008;
2.4033203125e+000;-4.5247308122e-008;3.1415152701e-009;-5.2986173671e-008;-2.4084272354e-008;-4.9815241709e-008;-6.9196460117e-008;
2.4072265625e+000;-4.5263444548e-008;3.1237457065e-009;-5.2969610920e-008;-2.4083311345e-008;-4.9822954651e-008;-6.9187301222e-008;
2.4111328125e+000;-4.5273480964e-008;3.1109828047e-009;-5.2956021790e-008;-2.4081165506e-008;-4.9820226167e-008;-6.9184125095e-008;
2.4150390625e+000;-4.5311768559e-008;3.0768965154e-009;-5.2977480181e-008;-2.4116570074e-008;-4.9851564654e-008;-6.9214678433e-008;
2.4199218750e+000;-4.5265210247e-008;3.1085911623e-009;-5.2930516858e-008;-2.4075845317e-008;-4.9823558612e-008;-6.9148562432e-008;
2.4238281250e+000;-4.5219568534e-008;3.1505678066e-009;-5.2864645994e-008;-2.4016658884e-008;-4.9772751254e-008;-6.9072413567e-008;
2.4277343750e+000;-4.5278262917e-008;3.0966553766e-009;-5.2896943714e-008;-2.4051034941e-008;-4.9813142056e-008;-6.9111059986e-008;
2.4316406250e+000;-4.5327571030e-008;3.0562881115e-009;-5.2947527251e-008;-2.4090150319e-008;-4.9858741136e-008;-6.9151354865e-008;
2.4355468750e+000;-4.5259085368e-008;3.1240585674e-009;-5.2884541191e-008;-2.4017976941e-008;-4.9811866631e-008;-6.9077593423e-008;
2.4394531250e+000;-4.5302158469e-008;3.0680005203e-009;-5.2900521297e-008;-2.4043860236e-008;-4.9823288606e-008;-6.9099726829e-008;
2.4433593750e+000;-4.5308127028e-008;3.0553493069e-009;-5.2907740411e-008;-2.4040932800e-008;-4.9814460112e-008;-6.9105489331e-008;
2.4472656250e+000;-4.5314830999e-008;3.0324835976e-009;-5.2934698402e-008;-2.4061518999e-008;-4.9816470948e-008;-6.9141790959e-008;
2.4511718750e+000;-4.5344357602e-008;2.9945301794e-009;-5.2980919207e-008;-2.4103316676e-008;-4.9829928628e-008;-6.9182135576e-008;
2.4550781250e+000;-4.5331951526e-008;3.0167925935e-009;-5.2983647691e-008;-2.4073967708e-008;-4.9817433734e-008;-6.9143489156e-008;
2.4599609375e+000;-4.5322831710e-008;3.0300695286e-009;-5.2980606569e-008;-2.4040508251e-008;-4.9815600534e-008;-6.9123196056e-008;
2.4638671875e+000;-4.5275850624e-008;3.0803162243e-009;-5.2961205199e-008;-2.4005862187e-008;-4.9788422274e-008;-6.9096145694e-008;
2.4677734375e+000;-4.5323570674e-008;3.0417370844e-009;-5.3005017264e-008;-2.4053203873e-008;-4.9808761560e-008;-6.9144427073e-008;
2.4716796875e+000;-4.5346236988e-008;2.9965419035e-009;-5.3034295178e-008;-2.4075980321e-008;-4.9820407355e-008;-6.9166958383e-008;
2.4755859375e+000;-4.5332065213e-008;2.9864835049e-009;-5.3048758275e-008;-2.4072337013e-008;-4.9809766978e-008;-6.9171271377e-008;
2.4794921875e+000;-4.5325315057e-008;2.9906634946e-009;-5.3055398297e-008;-2.4074662264e-008;-4.9793094092e-008;-6.9180906337e-008;
2.4833984375e+000;-4.5331773890e-008;3.0054825295e-009;-5.3045919657e-008;-2.4067821514e-008;-4.9785896294e-008;-6.9186135931e-008;
2.4873046875e+000;-4.5343842459e-008;3.0086342306e-009;-5.3023367030e-008;-2.4041625579e-008;-4.9787548306e-008;-6.9153301752e-008;
2.4912109375e+000;-4.5351441713e-008;2.9645566002e-009;-5.3025175362e-008;-2.4048576464e-008;-4.9786542888e-008;-6.9163490934e-008;
2.4951171875e+000;-4.5350727618e-008;2.9449986894e-009;-5.3035659420e-008;-2.4068336657e-008;-4.9786073930e-008;-6.9193532681e-008;
2.4990234375e+000;-4.5352201994e-008;2.9830191650e-009;-5.3051081750e-008;-2.4092027928e-008;-4.9786855527e-008;-6.9230416955e-008;
2.5039062500e+000;-4.5343352184e-008;2.9407296598e-009;-5.3042253256e-008;-2.4078103067e-008;-4.9776751609e-008;-6.9211594678e-008;
2.5078125000e+000;-4.5342034127e-008;2.9742794894e-009;-5.3048399451e-008;-2.4062636328e-008;-4.9773156263e-008;-6.9203863973e-008;
2.5117187500e+000;-4.5331617571e-008;3.0072706547e-009;-5.3059554972e-008;-2.4025487377e-008;-4.9742130415e-008;-6.9169956873e-008;
2.5156250000e+000;-4.5335237786e-008;2.9767830423e-009;-5.3044175274e-008;-2.4052466685e-008;-4.9751182729e-008;-6.9211168352e-008;
2.5195312500e+000;-4.5336893351e-008;2.9739890550e-009;-5.3007028100e-008;-2.4080248906e-008;-4.9735358942e-008;-6.9221094634e-008;
2.5234375000e+000;-4.5360248890e-008;2.9494020559e-009;-5.3026070646e-008;-2.4076047822e-008;-4.9747718833e-008;-6.9228356381e-008;
2.5273437500e+000;-4.5390848413e-008;2.9595497164e-009;-5.3073030415e-008;-2.4037602131e-008;-4.9754021347e-008;-6.9206521403e-008;
2.5312500000e+000;-4.5376811642e-008;2.9496702858e-009;-5.3104546538e-008;-2.4121018072e-008;-4.9727869822e-008;-6.9247739987e-008;
2.5351562500e+000;-4.5345856847e-008;2.9527995604e-009;-5.3037606307e-008;-2.4154166667e-008;-4.9655493939e-008;-6.9258355495e-008;
2.5390625000e+000;-4.5337920085e-008;2.9350970543e-009;-5.2972872311e-008;-2.4142343236e-008;-4.9677510106e-008;-6.9180863704e-008;
2.5439453125e+000;-4.5348134137e-008;2.9093925047e-009;-5.2968538000e-008;-2.4095024642e-008;-4.9724114604e-008;-6.9181062656e-008;
2.5478515625e+000;-4.5417827721e-008;2.9146673963e-009;-5.3017981116e-008;-2.4075376359e-008;-4.9717858275e-008;-6.9245835732e-008;
2.5517578125e+000;-4.5393644399e-008;2.9099735954e-009;-5.3084253437e-008;-2.4149807487e-008;-4.9677801428e-008;-6.9258760504e-008;
2.5556640625e+000;-4.5335216470e-008;2.9529561019e-009;-5.2976719900e-008;-2.4034831014e-008;-4.9684530268e-008;-6.9220490673e-008;
2.5595703125e+000;-4.5320216913e-008;3.0005651297e-009;-5.2938005979e-008;-2.4015450961e-008;-4.9726551765e-008;-6.9163782257e-008;
2.5634765625e+000;-4.5372566149e-008;2.9710160998e-009;-5.2972001896e-008;-2.4010265776e-008;-4.9719734108e-008;-6.9166290473e-008;
2.5673828125e+000;-4.5364565437e-008;2.8887170433e-009;-5.3087159557e-008;-2.4221556316e-008;-4.9721947448e-008;-6.9209917797e-008;
2.5712890625e+000;-4.5405087690e-008;2.8110447303e-009;-5.3051326887e-008;-2.4123163911e-008;-4.9780105371e-008;-6.9262263480e-008;
2.5751953125e+000;-4.5408171445e-008;2.7519020396e-009;-5.3149697976e-008;-2.4225736084e-008;-4.9703796634e-008;-6.9191408159e-008;
2.5791015625e+000;-4.5377706925e-008;2.7890505461e-009;-5.3181551607e-008;-2.4067620785e-008;-4.9692332027e-008;-6.9192104490e-008;
2.5839843750e+000;-4.5367940515e-008;3.0010123275e-009;-5.3058169414e-008;-2.3968468099e-008;-4.9724448559e-008;-6.9256188340e-008;
2.5878906250e+000;-4.5271178806e-008;2.9145781344e-009;-5.2958235131e-008;-2.3875417199e-008;-4.9763052345e-008;-6.9162709337e-008;
2.5917968750e+000;-4.5256268066e-008;3.1115863219e-009;-5.2923297744e-008;-2.4076696192e-008;-4.9744901531e-008;-6.9255513324e-008;
2.5957031250e+000;-4.5262506632e-008;3.0030908871e-009;-5.3004413303e-008;-2.4077388971e-008;-4.9731557539e-008;-6.9322148022e-008;
2.5996093750e+000;-4.5337674948e-008;2.9158073733e-009;-5.3073971884e-008;-2.3996944876e-008;-4.9773131394e-008;-6.9148072157e-008;
2.6035156250e+000;-4.5339774601e-008;3.0228499703e-009;-5.3077144457e-008;-2.4203988147e-008;-4.9746489594e-008;-6.9322368290e-008;
2.6074218750e+000;-4.5327997356e-008;2.8989541878e-009;-5.3064738381e-008;-2.4113262498e-008;-4.9725635165e-008;-6.9256657298e-008;
2.6113281250e+000;-4.5373816704e-008;2.8464053337e-009;-5.3158281332e-008;-2.4147640332e-008;-4.9709363736e-008;-6.9146508963e-008;
2.6152343750e+000;-4.5493109724e-008;2.6510287299e-009;-5.3287163126e-008;-2.4325737868e-008;-4.9815689351e-008;-6.9092727983e-008;
2.6191406250e+000;-4.5387878345e-008;2.3467767729e-009;-5.3184230353e-008;-2.4110290653e-008;-4.9706301297e-008;-6.9056852681e-008;
2.6230468750e+000;-4.5320710740e-008;2.7766902111e-009;-5.3046747439e-008;-2.3712429353e-008;-4.9710479288e-008;-6.9154488358e-008;
2.6279296875e+000;-4.5313043984e-008;3.1037408199e-009;-5.3005798861e-008;-2.4084407357e-008;-4.9642018496e-008;-6.9282251047e-008;
2.6318359375e+000;-4.5412352989e-008;2.8606657043e-009;-5.3217984686e-008;-2.4335237825e-008;-4.9750802589e-008;-6.9267002800e-008;
2.6357421875e+000;-4.5404910054e-008;2.8070215041e-009;-5.3093259567e-008;-2.4220058847e-008;-4.9694765636e-008;-6.9158062388e-008;
2.6396484375e+000;-4.5339618282e-008;3.0481521751e-009;-5.2909239656e-008;-2.3779014313e-008;-4.9749214526e-008;-6.8979360890e-008;
2.6435546875e+000;-4.5401062465e-008;2.9020610359e-009;-5.3121738119e-008;-2.4249317221e-008;-4.9626216025e-008;-6.9214635801e-008;
2.6474609375e+000;-4.5281705496e-008;3.0663462880e-009;-5.2966726116e-008;-2.4107272623e-008;-4.9572413729e-008;-6.9434399563e-008;
2.6513671875e+000;-4.5158010664e-008;3.2395053307e-009;-5.2669584250e-008;-2.3958030226e-008;-4.9739849572e-008;-6.9453712115e-008;
2.6552734375e+000;-4.5384410896e-008;2.9060396312e-009;-5.2936933059e-008;-2.4049091607e-008;-4.9773849042e-008;-6.9449995976e-008;
2.6591796875e+000;-4.5215521993e-008;2.9293749648e-009;-5.2783018845e-008;-2.3917506198e-008;-4.9720448203e-008;-6.9083142762e-008;
2.6630859375e+000;-4.5226766332e-008;3.0410889362e-009;-5.2542826978e-008;-2.3999582766e-008;-4.9929056445e-008;-6.9188999419e-008;
2.6679687500e+000;-4.5379582758e-008;2.7513209488e-009;-5.2920928084e-008;-2.4240645047e-008;-4.9927134427e-008;-6.9338533137e-008;
2.6718750000e+000;-4.5632987167e-008;2.6192443769e-009;-5.3466468586e-008;-2.4205396798e-008;-4.9836522464e-008;-6.8946953036e-008;
2.6757812500e+000;-4.5431953311e-008;2.9561075809e-009;-5.3395119437e-008;-2.4045201386e-008;-4.9672525648e-008;-6.9181865570e-008;
2.6796875000e+000;-4.5539824356e-008;2.6552531285e-009;-5.3179896042e-008;-2.4098889995e-008;-4.9832252103e-008;-6.9181282925e-008;
2.6835937500e+000;-4.5399453086e-008;2.9694069426e-009;-5.2923031291e-008;-2.3922311243e-008;-4.9819288250e-008;-6.9222593879e-008;
2.6875000000e+000;-4.5133983662e-008;3.1897950947e-009;-5.2960579922e-008;-2.4094017448e-008;-4.9870539698e-008;-6.9617435372e-008;
2.6914062500e+000;-4.5250324376e-008;3.1502771503e-009;-5.2699423492e-008;-2.4177367663e-008;-4.9935160007e-008;-6.9344473275e-008;
2.6953125000e+000;-4.5179401553e-008;3.1944218382e-009;-5.2639297365e-008;-2.4038810054e-008;-5.0001812468e-008;-6.9468704567e-008;
2.6992187500e+000;-4.5153520034e-008;3.1901079556e-009;-5.2644505644e-008;-2.4031008294e-008;-4.9923045253e-008;-6.9519174417e-008;
2.7031250000e+000;-4.5225782230e-008;3.1107592058e-009;-5.2769987491e-008;-2.4153070655e-008;-4.9911982103e-008;-6.9450265983e-008;
2.7070312500e+000;-4.5271356441e-008;3.0535611817e-009;-5.2866436562e-008;-2.4199339421e-008;-4.9940570790e-008;-6.9416003612e-008;
2.7119140625e+000;-4.5265100113e-008;3.0176865451e-009;-5.2948802676e-008;-2.4170281776e-008;-4.9863857043e-008;-6.9366763000e-008;
2.7158203125e+000;-4.5284789252e-008;3.1101334841e-009;-5.2993996746e-008;-2.4132194909e-008;-4.9868930319e-008;-6.9347514398e-008;
2.7197265625e+000;-4.5279673344e-008;3.0918720917e-009;-5.2943100570e-008;-2.4147974287e-008;-4.9919581357e-008;-6.9352232401e-008;
2.7236328125e+000;-4.5292257056e-008;3.0701015064e-009;-5.2974574061e-008;-2.4166617152e-008;-4.9904425481e-008;-6.9355607479e-008;
2.7275390625e+000;-4.5280117433e-008;3.0808973150e-009;-5.2961230068e-008;-2.4140687671e-008;-4.9890726217e-008;-6.9334191721e-008;
2.7314453125e+000;-4.5293617745e-008;3.0644240478e-009;-5.2975444476e-008;-2.4165164092e-008;-4.9893138510e-008;-6.9355898802e-008;
2.7353515625e+000;-4.5295518447e-008;3.0639324411e-009;-5.2978684550e-008;-2.4166974200e-008;-4.9897856513e-008;-6.9342668496e-008;
2.7392578125e+000;-4.5307970709e-008;3.0331539502e-009;-5.2981704357e-008;-2.4199584558e-008;-4.9907399102e-008;-6.9359856525e-008;
2.7431640625e+000;-4.5319456632e-008;3.0214417635e-009;-5.2979309828e-008;-2.4216998185e-008;-4.9927226797e-008;-6.9372525502e-008;
2.7470703125e+000;-4.5293553796e-008;3.0615854296e-009;-5.2957965124e-008;-2.4152937428e-008;-4.9907331601e-008;-6.9345034603e-008;
2.7519531250e+000;-4.5273303328e-008;3.0542541829e-009;-5.2937068062e-008;-2.4156916467e-008;-4.9898055465e-008;-6.9352189769e-008;
2.7558593750e+000;-4.5296658868e-008;3.0411335672e-009;-5.2923724070e-008;-2.4171198376e-008;-4.9912472377e-008;-6.9351180798e-008;
2.7597656250e+000;-4.5269970883e-008;3.0870888068e-009;-5.2882750623e-008;-2.4120504705e-008;-4.9890164888e-008;-6.9305670536e-008;
2.7636718750e+000;-4.5293461426e-008;3.0667710593e-009;-5.2881656387e-008;-2.4128953058e-008;-4.9898414289e-008;-6.9316087092e-008;
2.7675781250e+000;-4.5321669973e-008;3.0312095056e-009;-5.2905996029e-008;-2.4185615288e-008;-4.9927560752e-008;-6.9378295109e-008;
2.7714843750e+000;-4.5306581598e-008;3.0442182108e-009;-5.2868401212e-008;-2.4165924373e-008;-4.9907779243e-008;-6.9350399201e-008;
2.7753906250e+000;-4.5320106778e-008;3.0386972938e-009;-5.2858567301e-008;-2.4153250067e-008;-4.9905299448e-008;-6.9338085495e-008;
2.7792968750e+000;-4.5308127028e-008;3.0540530105e-009;-5.2853291521e-008;-2.4137895238e-008;-4.9901185406e-008;-6.9324315177e-008;
2.7832031250e+000;-4.5314898500e-008;3.0232523152e-009;-5.2859526534e-008;-2.4172539526e-008;-4.9899909982e-008;-6.9362961597e-008;
2.7871093750e+000;-4.5314877184e-008;3.0213971325e-009;-5.2848264431e-008;-2.4166862289e-008;-4.9890971354e-008;-6.9350960530e-008;
2.7919921875e+000;-4.5308862440e-008;3.0197877532e-009;-5.2853849297e-008;-2.4168516077e-008;-4.9893920107e-008;-6.9354825882e-008;
2.7958984375e+000;-4.5311658425e-008;3.0129927442e-009;-5.2852822563e-008;-2.4161542100e-008;-4.9891305309e-008;-6.9356211441e-008;
2.7998046875e+000;-4.5304840768e-008;3.0255769001e-009;-5.2861114597e-008;-2.4152289058e-008;-4.9880533481e-008;-6.9346263842e-008;
2.8037109375e+000;-4.5288700790e-008;3.0438382925e-009;-5.2850410270e-008;-2.4133536058e-008;-4.9853820627e-008;-6.9315376550e-008;
2.8076171875e+000;-4.5287116279e-008;3.0473474855e-009;-5.2860535504e-008;-2.4122426723e-008;-4.9858805085e-008;-6.9303908390e-008;
2.8115234375e+000;-4.5304727081e-008;3.0174407417e-009;-5.2882484169e-008;-2.4132306820e-008;-4.9879997022e-008;-6.9328940810e-008;
2.8154296875e+000;-4.5321982611e-008;3.0035380849e-009;-5.2911072856e-008;-2.4163442802e-008;-4.9905455768e-008;-6.9354086918e-008;
2.8193359375e+000;-4.5316642883e-008;3.0236546600e-009;-5.2911428128e-008;-2.4144174660e-008;-4.9902570964e-008;-6.9324023855e-008;
2.8232421875e+000;-4.5292701145e-008;3.0495155290e-009;-5.2899807201e-008;-2.4106267205e-008;-4.9881471398e-008;-6.9288375926e-008;
2.8271484375e+000;-4.5280700078e-008;3.0507447679e-009;-5.2915428483e-008;-2.4093637307e-008;-4.9872127761e-008;-6.9276708814e-008;
2.8310546875e+000;-4.5274038740e-008;3.0410443053e-009;-5.2932037420e-008;-2.4103986362e-008;-4.9868663865e-008;-6.9293335514e-008;
2.8359375000e+000;-4.5310940777e-008;3.0015934183e-009;-5.2958860408e-008;-2.4141716182e-008;-4.9884981479e-008;-6.9329637142e-008;
2.8398437500e+000;-4.5319747954e-008;3.0047002664e-009;-5.2962366937e-008;-2.4123142595e-008;-4.9887550091e-008;-6.9304576300e-008;
2.8437500000e+000;-4.5298445883e-008;3.0318576538e-009;-5.2955282825e-008;-2.4081144190e-008;-4.9875101382e-008;-6.9267208858e-008;
2.8476562500e+000;-4.5308215846e-008;3.0182230049e-009;-5.2981413035e-008;-2.4094800821e-008;-4.9889518294e-008;-6.9285086113e-008;
2.8515625000e+000;-4.5340378563e-008;2.9648470345e-009;-5.3033446079e-008;-2.4142543964e-008;-4.9921705880e-008;-6.9331555608e-008;
2.8554687500e+000;-4.5323861997e-008;2.9872881946e-009;-5.3030539959e-008;-2.4117957409e-008;-4.9910862998e-008;-6.9300355676e-008;
2.8593750000e+000;-4.5342122945e-008;2.9707478699e-009;-5.3056872673e-008;-2.4131054488e-008;-4.9925212409e-008;-6.9318573992e-008;
2.8632812500e+000;-4.5336623344e-008;2.9715749861e-009;-5.3064514560e-008;-2.4123991693e-008;-4.9922665113e-008;-6.9314367579e-008;
2.8671875000e+000;-4.5320710740e-008;2.9912667898e-009;-5.3064070471e-008;-2.4111965757e-008;-4.9909456123e-008;-6.9302949157e-008;
2.8710937500e+000;-4.5308638619e-008;3.0046332089e-009;-5.3049138415e-008;-2.4094061857e-008;-4.9896893728e-008;-6.9272033443e-008;
2.8759765625e+000;-4.5290310169e-008;3.0071143353e-009;-5.3039862280e-008;-2.4083378847e-008;-4.9880352293e-008;-6.9265908564e-008;
2.8798828125e+000;-4.5306627783e-008;2.9902387233e-009;-5.3047706672e-008;-2.4093996132e-008;-4.9884356201e-008;-6.9278470960e-008;
2.8837890625e+000;-4.5324664910e-008;2.9853883809e-009;-5.3073346606e-008;-2.4116213027e-008;-4.9901252908e-008;-6.9294657123e-008;
2.8876953125e+000;-4.5318586217e-008;2.9880928842e-009;-5.3056648852e-008;-2.4100611284e-008;-4.9889404607e-008;-6.9281888671e-008;
2.8916015625e+000;-4.5313555574e-008;2.9893894027e-009;-5.3049653559e-008;-2.4090665462e-008;-4.9883393416e-008;-6.9275479575e-008;
2.8955078125e+000;-4.5316284059e-008;2.9944631219e-009;-5.3042164438e-008;-2.4080115679e-008;-4.9873758456e-008;-6.9268253355e-008;
2.8994140625e+000;-4.5312955166e-008;2.9955584679e-009;-5.3049205917e-008;-2.4097124296e-008;-4.9877872499e-008;-6.9285292170e-008;
2.9033203125e+000;-4.5301018048e-008;2.9919597910e-009;-5.3032909619e-008;-2.4097660756e-008;-4.9865221285e-008;-6.9272324765e-008;
2.9072265625e+000;-4.5273100824e-008;3.0262250483e-009;-5.3011230960e-008;-2.4058724790e-008;-4.9841887062e-008;-6.9237501066e-008;
2.9111328125e+000;-4.5278085281e-008;3.0312987676e-009;-5.3012616519e-008;-2.4046945768e-008;-4.9847830752e-008;-6.9231440136e-008;
2.9150390625e+000;-4.5291361772e-008;3.0140432372e-009;-5.3023903490e-008;-2.4063977477e-008;-4.9854804729e-008;-6.9258646818e-008;
2.9199218750e+000;-4.5309867858e-008;2.9984865701e-009;-5.3028148983e-008;-2.4076427962e-008;-4.9862808993e-008;-6.9277376724e-008;
2.9238281250e+000;-4.5343799826e-008;2.9682223346e-009;-5.3046075976e-008;-2.4093704809e-008;-4.9887482589e-008;-6.9288596194e-008;
2.9277343750e+000;-4.5353857558e-008;2.9533806511e-009;-5.3065008387e-008;-2.4115923480e-008;-4.9889830933e-008;-6.9305066575e-008;
2.9316406250e+000;-4.5324554776e-008;2.9886069175e-009;-5.3059373784e-008;-2.4095761830e-008;-4.9873424501e-008;-6.9277575676e-008;
2.9355468750e+000;-4.5309690222e-008;3.0073825652e-009;-5.3052893634e-008;-2.4076740601e-008;-4.9861689888e-008;-6.9257886537e-008;
2.9394531250e+000;-4.5321179698e-008;2.9865283580e-009;-5.3048555770e-008;-2.4084831907e-008;-4.9866049068e-008;-6.9264970648e-008;
2.9433593750e+000;-4.5333472087e-008;2.9725362172e-009;-5.3068561101e-008;-2.4082282835e-008;-4.9882299180e-008;-6.9280574166e-008;
2.9472656250e+000;-4.5328821585e-008;2.9624553921e-009;-5.3079784124e-008;-2.4097170481e-008;-4.9874586239e-008;-6.9292639182e-008;
2.9511718750e+000;-4.5327503528e-008;2.9842708305e-009;-5.3081748774e-008;-2.4099785279e-008;-4.9863881912e-008;-6.9282783954e-008;
2.9550781250e+000;-4.5329581866e-008;2.9730724549e-009;-5.3072295003e-008;-2.4084384265e-008;-4.9861689888e-008;-6.9275188253e-008;
2.9599609375e+000;-4.5328039988e-008;2.9706139770e-009;-5.3074373341e-008;-2.4083243844e-008;-4.9864706142e-008;-6.9278698334e-008;
2.9638671875e+000;-4.5328601317e-008;2.9764477549e-009;-5.3077769735e-008;-2.4086933337e-008;-4.9865064966e-008;-6.9283458970e-008;
2.9677734375e+000;-4.5332065213e-008;2.9751958674e-009;-5.3089461716e-008;-2.4100566876e-008;-4.9870944707e-008;-6.9297605876e-008;
2.9716796875e+000;-4.5319591635e-008;2.9757547537e-009;-5.3074753481e-008;-2.4088855355e-008;-4.9858584816e-008;-6.9277596992e-008;
2.9755859375e+000;-4.5314450858e-008;2.9757101228e-009;-5.3066528949e-008;-2.4086418193e-008;-4.9848928541e-008;-6.9285292170e-008;
2.9794921875e+000;-4.5320554420e-008;2.9759783526e-009;-5.3061878447e-008;-2.4084943817e-008;-4.9851319517e-008;-6.9293292881e-008;
2.9833984375e+000;-4.5315101005e-008;2.9880706798e-009;-5.3060315253e-008;-2.4085144545e-008;-4.9845485961e-008;-6.9300575944e-008;
2.9873046875e+000;-4.5320106778e-008;2.9776545674e-009;-5.3054389326e-008;-2.4103204765e-008;-4.9850893191e-008;-6.9302274142e-008;
2.9912109375e+000;-4.5310674324e-008;2.9894786646e-009;-5.3037133796e-008;-2.4085837325e-008;-4.9850335415e-008;-6.9286251403e-008;
2.9951171875e+000;-4.5323659492e-008;2.9776769939e-009;-5.3041336656e-008;-2.4091626472e-008;-4.9864372187e-008;-6.9300462258e-008;
2.9990234375e+000;-4.5321471021e-008;2.9622095887e-009;-5.3060158933e-008;-2.4095358597e-008;-4.9864752327e-008;-6.9337410480e-008;
3.0039062500e+000;-4.5300392770e-008;2.9780569122e-009;-5.3042747084e-008;-2.4086865835e-008;-4.9829928628e-008;-6.9310097217e-008;
3.0078125000e+000;-4.5307789520e-008;2.9912221589e-009;-5.3032216840e-008;-2.4059842119e-008;-4.9830642723e-008;-6.9293065508e-008;
3.0117187500e+000;-4.5317872122e-008;2.9720219619e-009;-5.3035524417e-008;-2.4075175631e-008;-4.9853486672e-008;-6.9311191453e-008;
3.0156250000e+000;-4.5307654517e-008;2.9690938597e-009;-5.3044264092e-008;-2.4092543072e-008;-4.9862986629e-008;-6.9337168895e-008;
3.0195312500e+000;-4.5313289121e-008;2.9802251778e-009;-5.3050769111e-008;-2.4092811302e-008;-4.9860638285e-008;-6.9333950137e-008;
3.0234375000e+000;-4.5305132090e-008;2.9899480669e-009;-5.3030383640e-008;-2.4062881465e-008;-4.9838153160e-008;-6.9297648508e-008;
3.0273437500e+000;-4.5311612240e-008;2.9781910271e-009;-5.3034856506e-008;-2.4046117986e-008;-4.9850402917e-008;-6.9295346350e-008;
3.0312500000e+000;-4.5325695197e-008;2.9690045977e-009;-5.3055888571e-008;-2.4091670880e-008;-4.9872529218e-008;-6.9315575502e-008;
3.0351562500e+000;-4.5326810749e-008;2.9726479056e-009;-5.3047820359e-008;-2.4093258943e-008;-4.9866471841e-008;-6.9319419538e-008;
3.0390625000e+000;-4.5319904274e-008;2.9782134536e-009;-5.3034071357e-008;-2.4081144190e-008;-4.9857153073e-008;-6.9290940985e-008;
3.0439453125e+000;-4.5325133868e-008;2.9664564138e-009;-5.3033716085e-008;-2.4083334438e-008;-4.9860439333e-008;-6.9301066219e-008;
3.0478515625e+000;-4.5308571117e-008;2.9912221589e-009;-5.3039997283e-008;-2.4070011762e-008;-4.9849553818e-008;-6.9284865845e-008;
3.0517578125e+000;-4.5308887309e-008;2.9881153107e-009;-5.3058524685e-008;-2.4095671236e-008;-4.9859409046e-008;-6.9301982819e-008;
3.0556640625e+000;-4.5310695640e-008;2.9787723399e-009;-5.3049227233e-008;-2.4089837680e-008;-4.9854381956e-008;-6.9299325389e-008;
3.0595703125e+000;-4.5292679829e-008;3.0036273468e-009;-5.3034387548e-008;-2.4050633485e-008;-4.9831268001e-008;-6.9271315795e-008;
3.0634765625e+000;-4.5298758522e-008;2.9997382356e-009;-5.3045873472e-008;-2.4060803128e-008;-4.9836074822e-008;-6.9275678527e-008;
3.0673828125e+000;-4.5301597140e-008;2.9928985956e-009;-5.3058794691e-008;-2.4075511362e-008;-4.9854136819e-008;-6.9295907679e-008;
3.0712890625e+000;-4.5296992823e-008;2.9955584679e-009;-5.3038252901e-008;-2.4063709247e-008;-4.9851252015e-008;-6.9280709170e-008;
3.0751953125e+000;-4.5287674055e-008;3.0103999293e-009;-5.3033065939e-008;-2.4048599556e-008;-4.9843965400e-008;-6.9256948620e-008;
3.0791015625e+000;-4.5290267536e-008;3.0052142996e-009;-5.3035638103e-008;-2.4064021886e-008;-4.9835897187e-008;-6.9265240654e-008;
3.0839843750e+000;-4.5302247287e-008;2.9930549150e-009;-5.3058368366e-008;-2.4088116390e-008;-4.9852435069e-008;-6.9298565109e-008;
3.0878906250e+000;-4.5288413020e-008;2.9984641436e-009;-5.3036195879e-008;-2.4070459403e-008;-4.9841997196e-008;-6.9279032289e-008;
3.0917968750e+000;-4.5269278104e-008;3.0185807187e-009;-5.3008704981e-008;-2.4038698143e-008;-4.9820361170e-008;-6.9247469980e-008;
3.0957031250e+000;-4.5262595449e-008;3.0237217175e-009;-5.3003049061e-008;-2.4031187706e-008;-4.9812808101e-008;-6.9244137535e-008;
3.0996093750e+000;-4.5266773441e-008;3.0174183152e-009;-5.3013309298e-008;-2.4054031655e-008;-4.9824294024e-008;-6.9271074210e-008;
3.1035156250e+000;-4.5279314520e-008;3.0110258731e-009;-5.3014669987e-008;-2.4059014336e-008;-4.9828251747e-008;-6.9276595127e-008;
3.1074218750e+000;-4.5270351023e-008;3.0276778862e-009;-5.3001663503e-008;-2.4033511181e-008;-4.9822954651e-008;-6.9244698864e-008;
3.1113281250e+000;-4.5268919280e-008;3.0215983049e-009;-5.3009820533e-008;-2.4035031743e-008;-4.9831136550e-008;-6.9257595214e-008;
3.1152343750e+000;-4.5283872652e-008;2.9910209864e-009;-5.3041450343e-008;-2.4073722571e-008;-4.9847319161e-008;-6.9306210548e-008;
3.1191406250e+000;-4.5281439043e-008;2.9867295304e-009;-5.3039304504e-008;-2.4075264449e-008;-4.9839449900e-008;-6.9306722139e-008;
3.1230468750e+000;-4.5292100737e-008;2.9730278239e-009;-5.3040956516e-008;-2.4081344918e-008;-4.9841506922e-008;-6.9307084516e-008;
3.1279296875e+000;-4.5299252349e-008;2.9688256298e-009;-5.3044555415e-008;-2.4079488625e-008;-4.9841194283e-008;-6.9310992501e-008;
3.1318359375e+000;-4.5294893170e-008;2.9711502147e-009;-5.3056247395e-008;-2.4088832262e-008;-4.9842668659e-008;-6.9325075458e-008;
3.1357421875e+000;-4.5275850624e-008;3.0000286699e-009;-5.3056513849e-008;-2.4070034854e-008;-4.9836433647e-008;-6.9310168271e-008;
3.1396484375e+000;-4.5247865899e-008;3.0128810558e-009;-5.3043081039e-008;-2.4038294910e-008;-4.9833683846e-008;-6.9275920112e-008;
3.1435546875e+000;-4.5257991133e-008;3.0080307134e-009;-5.3040846382e-008;-2.4030828882e-008;-4.9814079972e-008;-6.9270271297e-008;
3.1474609375e+000;-4.5268787829e-008;3.0144904350e-009;-5.3047482851e-008;-2.4042185132e-008;-4.9794454782e-008;-6.9293065508e-008;
3.1513671875e+000;-4.5258282455e-008;3.0286388952e-009;-5.3043414994e-008;-2.4039122692e-008;-4.9800444657e-008;-6.9279032289e-008;
3.1552734375e+000;-4.5240891922e-008;3.0279907470e-009;-5.3028909264e-008;-2.4030136103e-008;-4.9805407798e-008;-6.9264928015e-008;
3.1591796875e+000;-4.5231256962e-008;3.0319917688e-009;-5.3012236378e-008;-2.4007807298e-008;-4.9806189395e-008;-6.9265617242e-008;
3.1630859375e+000;-4.5238834900e-008;3.0253757277e-009;-5.3023590851e-008;-2.4036193480e-008;-4.9821412773e-008;-6.9299346706e-008;
3.1679687500e+000;-4.5249230141e-008;3.0238558324e-009;-5.3023143209e-008;-2.4046364899e-008;-4.9825302995e-008;-6.9296689276e-008;
3.1718750000e+000;-4.5248558678e-008;3.0247051530e-009;-5.3019590496e-008;-2.4042005720e-008;-4.9824073756e-008;-6.9289896487e-008;
3.1757812500e+000;-4.5249610281e-008;3.0321929412e-009;-5.3011898871e-008;-2.4022224210e-008;-4.9822329373e-008;-6.9282449999e-008;
3.1796875000e+000;-4.5246725477e-008;3.0372890869e-009;-5.3016460555e-008;-2.4031232115e-008;-4.9828006610e-008;-6.9295303717e-008;
3.1835937500e+000;-4.5243933045e-008;3.0359703640e-009;-5.3020773549e-008;-2.4039680468e-008;-4.9831001547e-008;-6.9298948802e-008;
3.1875000000e+000;-4.5242298796e-008;3.0331763767e-009;-5.3013440748e-008;-2.4027185574e-008;-4.9827470150e-008;-6.9288731197e-008;
3.1914062500e+000;-4.5250526881e-008;3.0348303870e-009;-5.3003002876e-008;-2.3987936970e-008;-4.9822819648e-008;-6.9277376724e-008;
3.1953125000e+000;-4.5242881441e-008;3.0377809157e-009;-5.3013017975e-008;-2.4008388166e-008;-4.9831470506e-008;-6.9282990012e-008;
3.1992187500e+000;-4.5233136348e-008;3.0166584786e-009;-5.3028710312e-008;-2.4061652226e-008;-4.9831470506e-008;-6.9303503381e-008;
3.2031250000e+000;-4.5225871048e-008;3.0182454314e-009;-5.3018315072e-008;-2.4059461978e-008;-4.9808090097e-008;-6.9280552850e-008;
3.2070312500e+000;-4.5231079326e-008;3.0363280779e-009;-5.3000256628e-008;-2.4020257783e-008;-4.9799396606e-008;-6.9270981840e-008;
3.2119140625e+000;-4.5248736313e-008;3.0349869284e-009;-5.3006200318e-008;-2.4031969303e-008;-4.9811017533e-008;-6.9284013193e-008;
3.2158203125e+000;-4.5264091142e-008;3.0262696793e-009;-5.3028216485e-008;-2.4062972059e-008;-4.9810569891e-008;-6.9298700112e-008;
3.2197265625e+000;-4.5256001613e-008;3.0138644913e-009;-5.3019721946e-008;-2.4035724522e-008;-4.9778584810e-008;-6.9288979887e-008;
3.2236328125e+000;-4.5249006320e-008;3.0241016358e-009;-5.3022247926e-008;-2.4027812628e-008;-4.9784823375e-008;-6.9278804915e-008;
3.2275390625e+000;-4.5245517555e-008;3.0369091686e-009;-5.3020951185e-008;-2.4042563496e-008;-4.9806303082e-008;-6.9289264104e-008;
3.2314453125e+000;-4.5236355106e-008;3.0299129872e-009;-5.3019455493e-008;-2.4043636415e-008;-4.9811063718e-008;-6.9324116225e-008;
3.2353515625e+000;-4.5231189461e-008;3.0294213804e-009;-5.3003272882e-008;-2.4026583390e-008;-4.9798167367e-008;-6.9306992145e-008;
3.2392578125e+000;-4.5231637102e-008;3.0352327318e-009;-5.3003518019e-008;-2.4004387811e-008;-4.9792131307e-008;-6.9295076344e-008;
3.2431640625e+000;-4.5240845736e-008;3.0457827371e-009;-5.3009685530e-008;-2.4024078726e-008;-4.9793271728e-008;-6.9300824634e-008;
3.2470703125e+000;-4.5243773172e-008;3.0421170027e-009;-5.3019544310e-008;-2.4036037161e-008;-4.9800043200e-008;-6.9323306207e-008;
3.2519531250e+000;-4.5239392676e-008;3.0377360627e-009;-5.3006090184e-008;-2.4024906509e-008;-4.9797698409e-008;-6.9313941253e-008;
3.2558593750e+000;-4.5253027992e-008;3.0231404047e-009;-5.3013085477e-008;-2.4026336476e-008;-4.9799819379e-008;-6.9314346263e-008;
3.2597656250e+000;-4.5264293647e-008;3.0195865808e-009;-5.3021512514e-008;-2.4020994971e-008;-4.9806459401e-008;-6.9310168271e-008;
3.2636718750e+000;-4.5257365855e-008;3.0223805680e-009;-5.3025466684e-008;-2.4027253076e-008;-4.9802771684e-008;-6.9332138253e-008;
3.2675781250e+000;-4.5252178893e-008;3.0146021235e-009;-5.3018315072e-008;-2.4033601775e-008;-4.9797094448e-008;-6.9340835296e-008;
3.2714843750e+000;-4.5254594738e-008;3.0093940673e-009;-5.3026248281e-008;-2.4037937862e-008;-4.9794969925e-008;-6.9333857766e-008;
3.2753906250e+000;-4.5244757274e-008;3.0199218681e-009;-5.3032128022e-008;-2.4007562160e-008;-4.9779881550e-008;-6.9317763973e-008;
3.2792968750e+000;-4.5239886504e-008;3.0285718378e-009;-5.3017352286e-008;-2.4006197918e-008;-4.9784240730e-008;-6.9320378770e-008;
3.2832031250e+000;-4.5229178625e-008;3.0269402540e-009;-5.3019320490e-008;-2.4023229628e-008;-4.9780172873e-008;-6.9327782626e-008;
3.2871093750e+000;-4.5240422963e-008;3.0287730102e-009;-5.3007205736e-008;-2.4012926758e-008;-4.9782453715e-008;-6.9313230711e-008;
3.2919921875e+000;-4.5242298796e-008;3.0395912454e-009;-5.3008413659e-008;-2.4004030763e-008;-4.9782588718e-008;-6.9300398309e-008;
3.2958984375e+000;-4.5239126223e-008;3.0408653373e-009;-5.3018137436e-008;-2.4005593957e-008;-4.9773021260e-008;-6.9303638384e-008;
3.2998046875e+000;-4.5230965640e-008;3.0479510027e-009;-5.3025132729e-008;-2.3988025788e-008;-4.9775145783e-008;-6.9306771877e-008;
3.3037109375e+000;-4.5247016800e-008;3.0442404153e-009;-5.3014268531e-008;-2.3989210618e-008;-4.9782855172e-008;-6.9287075632e-008;
3.3076171875e+000;-4.5246455471e-008;3.0361044789e-009;-5.3002288780e-008;-2.3978794061e-008;-4.9792063805e-008;-6.9292262594e-008;
3.3115234375e+000;-4.5243350399e-008;3.0373115134e-009;-5.3017018331e-008;-2.3998554255e-008;-4.9807688640e-008;-6.9295367666e-008;
3.3154296875e+000;-4.5230162726e-008;3.0501414727e-009;-5.3023903490e-008;-2.4021286293e-008;-4.9803574598e-008;-6.9311440143e-008;
3.3193359375e+000;-4.5223522704e-008;3.0574727194e-009;-5.3023523350e-008;-2.3988361519e-008;-4.9797495905e-008;-6.9293690785e-008;
3.3232421875e+000;-4.5221021594e-008;3.0584339505e-009;-5.3023299529e-008;-2.3970837759e-008;-4.9789537826e-008;-6.9274804559e-008;
3.3271484375e+000;-4.5223814027e-008;3.0603337642e-009;-5.3043414994e-008;-2.3981790775e-008;-4.9799350421e-008;-6.9274292969e-008;
3.3310546875e+000;-4.5235438506e-008;3.0458275901e-009;-5.3054076687e-008;-2.4002957844e-008;-4.9801162305e-008;-6.9299659344e-008;
3.3359375000e+000;-4.5249453962e-008;3.0308071608e-009;-5.3042143122e-008;-2.3993122156e-008;-4.9786365253e-008;-6.9287438009e-008;
3.3398437500e+000;-4.5260001968e-008;3.0223805680e-009;-5.3054076687e-008;-2.3982684283e-008;-4.9790990886e-008;-6.9286940629e-008;
3.3437500000e+000;-4.5256403070e-008;3.0219782232e-009;-5.3064159289e-008;-2.3979330521e-008;-4.9795751522e-008;-6.9282229731e-008;
3.3476562500e+000;-4.5264382464e-008;3.0103777249e-009;-5.3077659601e-008;-2.4004364718e-008;-4.9814417480e-008;-6.9303190742e-008;
3.3515625000e+000;-4.5252829040e-008;3.0122551120e-009;-5.3064805883e-008;-2.4002130061e-008;-4.9813856151e-008;-6.9297875882e-008;
3.3554687500e+000;-4.5254058278e-008;3.0230511427e-009;-5.3055575933e-008;-2.3976648222e-008;-4.9809745661e-008;-6.9296355321e-008;
3.3593750000e+000;-4.5250903469e-008;3.0316118504e-009;-5.3060670524e-008;-2.3973809604e-008;-4.9803105640e-008;-6.9293761840e-008;
3.3632812500e+000;-4.5234120449e-008;3.0334446066e-009;-5.3086285590e-008;-2.3992294373e-008;-4.9795396251e-008;-6.9312513062e-008;
3.3671875000e+000;-4.5241538515e-008;3.0514824001e-009;-5.3073748063e-008;-2.3998442344e-008;-4.9798813961e-008;-6.9289647797e-008;
3.3710937500e+000;-4.5247126934e-008;3.0493143566e-009;-5.3046210979e-008;-2.3994083165e-008;-4.9799240287e-008;-6.9276012482e-008;
3.3759765625e+000;-4.5247240621e-008;3.0269402540e-009;-5.3043571313e-008;-2.3976648222e-008;-4.9807866276e-008;-6.9272928727e-008;
3.3798828125e+000;-4.5260382109e-008;3.0221793956e-009;-5.3059107330e-008;-2.3984270570e-008;-4.9817344916e-008;-6.9288148552e-008;
3.3837890625e+000;-4.5260403425e-008;3.0059519318e-009;-5.3052872317e-008;-2.3978437014e-008;-4.9808047464e-008;-6.9292951821e-008;
3.3876953125e+000;-4.5265231563e-008;3.0100646420e-009;-5.3053472726e-008;-2.3984069841e-008;-4.9799975699e-008;-6.9274022962e-008;
3.3916015625e+000;-4.5264606285e-008;3.0202793599e-009;-5.3034206360e-008;-2.3967686502e-008;-4.9798725144e-008;-6.9266199887e-008;
3.3955078125e+000;-4.5256111747e-008;3.0302707010e-009;-5.3029268088e-008;-2.3965160523e-008;-4.9797048263e-008;-6.9265617242e-008;
3.3994140625e+000;-4.5259866965e-008;3.0199218681e-009;-5.3036711023e-008;-2.3987020370e-008;-4.9799329105e-008;-6.9277199088e-008;
3.4033203125e+000;-4.5254438419e-008;3.0136186879e-009;-5.3025019042e-008;-2.3986572728e-008;-4.9798636326e-008;-6.9268253355e-008;
3.4072265625e+000;-4.5238277124e-008;3.0279014851e-009;-5.3026653291e-008;-2.3962298812e-008;-4.9796021528e-008;-6.9255250423e-008;
3.4111328125e+000;-4.5237516844e-008;3.0296896103e-009;-5.3028596625e-008;-2.3973385055e-008;-4.9787526990e-008;-6.9250262413e-008;
3.4150390625e+000;-4.5243371716e-008;3.0250404404e-009;-5.3037606307e-008;-2.4000788912e-008;-4.9778428490e-008;-6.9277980685e-008;
3.4199218750e+000;-4.5242099844e-008;3.0290190356e-009;-5.3034007408e-008;-2.3997593246e-008;-4.9783032807e-008;-6.9264125102e-008;
3.4238281250e+000;-4.5241471014e-008;3.0332658607e-009;-5.3044757919e-008;-2.3996474141e-008;-4.9795954027e-008;-6.9246731016e-008;
3.4277343750e+000;-4.5232599888e-008;3.0401277051e-009;-5.3038768044e-008;-2.3982952513e-008;-4.9792937773e-008;-6.9246752332e-008;
3.4316406250e+000;-4.5226386192e-008;3.0491802416e-009;-5.3030252190e-008;-2.3977095864e-008;-4.9790834566e-008;-6.9268480729e-008;
3.4355468750e+000;-4.5213532474e-008;3.0339810664e-009;-5.3033314629e-008;-2.3986395092e-008;-4.9795303880e-008;-6.9261531621e-008;
3.4394531250e+000;-4.5210114763e-008;3.0359257330e-009;-5.3029378222e-008;-2.3973832697e-008;-4.9787480805e-008;-6.9245992051e-008;
3.4433593750e+000;-4.5225647227e-008;3.0386078098e-009;-5.3031122604e-008;-2.3962545725e-008;-4.9779814049e-008;-6.9249885826e-008;
3.4472656250e+000;-4.5257028347e-008;3.0102211834e-009;-5.3058414551e-008;-2.4005325727e-008;-4.9805521485e-008;-6.9294898708e-008;
3.4511718750e+000;-4.5266350668e-008;2.9917586186e-009;-5.3041627979e-008;-2.4025442968e-008;-4.9803976054e-008;-6.9296305583e-008;
3.4550781250e+000;-4.5254278547e-008;2.9962066161e-009;-5.3024461266e-008;-2.4009617405e-008;-4.9804693703e-008;-6.9282990012e-008;
3.4599609375e+000;-4.5266173032e-008;3.0017499597e-009;-5.3015497770e-008;-2.4003895760e-008;-4.9810481073e-008;-6.9277710679e-008;
3.4638671875e+000;-4.5269011650e-008;3.0163902487e-009;-5.3028930580e-008;-2.4011963973e-008;-4.9816183179e-008;-6.9288887516e-008;
3.4677734375e+000;-4.5250413194e-008;3.0190054900e-009;-5.3025086544e-008;-2.4014513045e-008;-4.9811756497e-008;-6.9280147841e-008;
3.4716796875e+000;-4.5245673874e-008;3.0166809051e-009;-5.3012055190e-008;-2.4004521038e-008;-4.9808360103e-008;-6.9269646019e-008;
3.4755859375e+000;-4.5250970970e-008;3.0216875668e-009;-5.3008971435e-008;-2.3984673803e-008;-4.9809589342e-008;-6.9258000224e-008;
3.4794921875e+000;-4.5253610637e-008;3.0132609741e-009;-5.3014403534e-008;-2.3995111675e-008;-4.9813120739e-008;-6.9268232039e-008;
3.4833984375e+000;-4.5248356173e-008;3.0089695180e-009;-5.3010221990e-008;-2.4013036892e-008;-4.9813813519e-008;-6.9267876768e-008;
3.4873046875e+000;-4.5249809233e-008;3.0087234926e-009;-5.3003002876e-008;-2.4002174470e-008;-4.9810729763e-008;-6.9254845414e-008;
3.4912109375e+000;-4.5255038827e-008;3.0092153214e-009;-5.3003830658e-008;-2.3982169139e-008;-4.9817277414e-008;-6.9244023848e-008;
3.4951171875e+000;-4.5256559389e-008;3.0091258374e-009;-5.3009820533e-008;-2.4001838739e-008;-4.9826418547e-008;-6.9256948620e-008;
3.4990234375e+000;-4.5260694748e-008;3.0092823788e-009;-5.3019700630e-008;-2.4016680200e-008;-4.9832589610e-008;-6.9276076431e-008;
3.5039062500e+000;-4.5264986426e-008;3.0058402434e-009;-5.3007742196e-008;-2.4001661103e-008;-4.9828454252e-008;-6.9262377167e-008;
3.5078125000e+000;-4.5247084302e-008;3.0084330582e-009;-5.3007294554e-008;-2.3987801967e-008;-4.9821256454e-008;-6.9261282931e-008;
3.5117187500e+000;-4.5227032786e-008;3.0181113164e-009;-5.3001393496e-008;-2.3990551767e-008;-4.9810012115e-008;-6.9272836356e-008;
3.5156250000e+000;-4.5230542867e-008;3.0180666855e-009;-5.3010424494e-008;-2.4004476629e-008;-4.9816829772e-008;-6.9301606231e-008;
3.5195312500e+000;-4.5245943880e-008;3.0041413801e-009;-5.3008211154e-008;-2.4008588895e-008;-4.9820183534e-008;-6.9313337292e-008;
3.5234375000e+000;-4.5251731251e-008;3.0016380492e-009;-5.3001819822e-008;-2.4008679489e-008;-4.9823626114e-008;-6.9314815221e-008;
3.5273437500e+000;-4.5239012536e-008;3.0244815541e-009;-5.2998267108e-008;-2.3998083520e-008;-4.9820808812e-008;-6.9314857853e-008;
3.5312500000e+000;-4.5243371716e-008;3.0328186629e-009;-5.3002779055e-008;-2.4002911658e-008;-4.9826642368e-008;-6.9332806163e-008;
3.5351562500e+000;-4.5240913238e-008;3.0348752400e-009;-5.2976897535e-008;-2.3990038400e-008;-4.9811173852e-008;-6.9309876949e-008;
3.5390625000e+000;-4.5245251101e-008;3.0319917688e-009;-5.2966839803e-008;-2.3978772745e-008;-4.9812850733e-008;-6.9294294747e-008;
3.5439453125e+000;-4.5238412127e-008;3.0243698657e-009;-5.2963955000e-008;-2.3980113895e-008;-4.9808157598e-008;-6.9294969762e-008;
3.5478515625e+000;-4.5245116098e-008;3.0308517918e-009;-5.2975355658e-008;-2.3989255027e-008;-4.9814506298e-008;-6.9310658546e-008;
3.5517578125e+000;-4.5252804171e-008;3.0317459654e-009;-5.2961361519e-008;-2.3984739528e-008;-4.9811397673e-008;-6.9292553917e-008;
3.5556640625e+000;-4.5247240621e-008;3.0251521288e-009;-5.2938631256e-008;-2.3970882168e-008;-4.9805699120e-008;-6.9270939207e-008;
3.5595703125e+000;-4.5239126223e-008;3.0306506194e-009;-5.2935615003e-008;-2.3970502028e-008;-4.9800849666e-008;-6.9264231684e-008;
3.5634765625e+000;-4.5247595892e-008;3.0264484252e-009;-5.2970616338e-008;-2.3995244902e-008;-4.9817501235e-008;-6.9280439163e-008;
3.5673828125e+000;-4.5259934467e-008;3.0230957737e-009;-5.2966839803e-008;-2.3992965836e-008;-4.9818350334e-008;-6.9284347148e-008;
3.5712890625e+000;-4.5263465864e-008;3.0287283792e-009;-5.2959798325e-008;-2.3979598751e-008;-4.9816115677e-008;-6.9263762725e-008;
3.5751953125e+000;-4.5251642433e-008;3.0210169921e-009;-5.2959396868e-008;-2.3956353346e-008;-4.9819334436e-008;-6.9255115420e-008;
3.5791015625e+000;-4.5252200209e-008;3.0110929305e-009;-5.2978528231e-008;-2.4001348464e-008;-4.9824830484e-008;-6.9267471758e-008;
3.5839843750e+000;-4.5252580350e-008;3.0125903994e-009;-5.2986329990e-008;-2.4000364363e-008;-4.9822620696e-008;-6.9280950754e-008;
3.5878906250e+000;-4.5253074177e-008;3.0143114671e-009;-5.2979267195e-008;-2.3975173846e-008;-4.9822954651e-008;-6.9256813617e-008;
3.5917968750e+000;-4.5256829395e-008;3.0167701670e-009;-5.2979757470e-008;-2.3960264883e-008;-4.9823356107e-008;-6.9240648770e-008;
3.5957031250e+000;-4.5273480964e-008;3.0177313981e-009;-5.2987648047e-008;-2.3966926221e-008;-4.9823537296e-008;-6.9244407541e-008;
3.5996093750e+000;-4.5265320381e-008;3.0315223665e-009;-5.3001862454e-008;-2.3974637386e-008;-4.9825704451e-008;-6.9251981927e-008;
3.6035156250e+000;-4.5238543578e-008;3.0378031202e-009;-5.2990085209e-008;-2.3955303519e-008;-4.9822215686e-008;-6.9232093836e-008;
3.6074218750e+000;-4.5225558409e-008;3.0369537996e-009;-5.2991158128e-008;-2.3951592709e-008;-4.9814641301e-008;-6.9221428589e-008;
3.6113281250e+000;-4.5217401379e-008;3.0371327675e-009;-5.3006356637e-008;-2.3967663410e-008;-4.9812872049e-008;-6.9224803667e-008;
3.6152343750e+000;-4.5223771394e-008;3.0507001370e-009;-5.3027257252e-008;-2.3989635167e-008;-4.9817700187e-008;-6.9232356736e-008;
3.6191406250e+000;-4.5239954005e-008;3.0515272531e-009;-5.3009685530e-008;-2.3969652929e-008;-4.9792401313e-008;-6.9218522469e-008;
3.6230468750e+000;-4.5246860481e-008;3.0465650003e-009;-5.3001841138e-008;-2.3948866001e-008;-4.9798256185e-008;-6.9203501596e-008;
3.6279296875e+000;-4.5248334857e-008;3.0537847806e-009;-5.2991492083e-008;-2.3933688809e-008;-4.9809120384e-008;-6.9195053243e-008;
